# xPDFsuite Configuration #
[PDF]
wavelength = 0.1
dataformat = Qnm
inputfile = Ni.chi
backgroundfile = Kapton-bkg.chi
mode = xray
bgscale = 0.0848180823037
composition = Ni
outputtype = iq
qmaxinst = 31.5
qmin = 0.1
qmax = 27.0
rmax = 80.0
rmin = 0.0
rstep = 0.01
rpoly = 0.9

[Misc]
inputdir = C:/Users/maak/OneDrive - Syddansk Universitet/PhD/Materialer/IrO2_Shuang/PDF-data/December2019/chi
savedir = C:/Users/maak/OneDrive - Syddansk Universitet/PhD/Materialer/IrO2_Shuang/PDF-data/December2019
backgroundfilefull = C:/Users/maak/OneDrive - Syddansk Universitet/PhD/Materialer/IrO2_Shuang/PDF-data/December2019/chi/Kapton-bkg.chi

#### start data
#S 1
#L Q($\AA^{-1}$)  intensity(a.u.)
0.11362 0
0.1311 0
0.148579 0
0.166059 0
0.183539 0
0.201019 0
0.218499 0
0.235979 0
0.253459 0
0.270939 0
0.288419 0
0.305899 0
0.323379 0
0.340859 0
0.358339 0
0.375819 0
0.393299 0
0.410779 0
0.428259 0
0.445738 0
0.463218 2.02304e-06
0.480698 3.15728
0.498178 1578.36
0.515658 1584.9
0.533138 1614.35
0.550618 1341.2
0.568098 926.333
0.585578 1754.01
0.603058 4067.47
0.620538 6584.43
0.638018 8404.61
0.655498 8938.84
0.672978 9794.49
0.690458 10223.5
0.707938 11208.9
0.725418 11956.8
0.742897 12065.1
0.760377 12680.4
0.777857 12875.7
0.795337 13508.7
0.812817 13848.7
0.830297 14203.6
0.847777 14872.5
0.865257 15151.8
0.882737 15883.3
0.900217 16180.2
0.917697 16746.4
0.935177 17372.3
0.952657 17568
0.970137 18142
0.987617 18376.4
1.0051 19024.7
1.02258 19879.3
1.04006 20150.6
1.05754 20623.2
1.07502 20813.5
1.0925 21406.1
1.10998 22038.6
1.12746 22296.3
1.14494 22794.5
1.16242 22888.1
1.1799 23280.5
1.19738 23799.6
1.21486 24206.4
1.23234 24631.4
1.24982 24581.1
1.2673 24845.2
1.28478 24682.4
1.30226 24463
1.31974 24599.7
1.33722 24453.6
1.3547 24676.8
1.37218 24635.1
1.38966 25091.9
1.40714 25986
1.42462 26585.2
1.4421 27551.8
1.45957 27875.8
1.47705 28374.6
1.49453 28942.8
1.51201 29576.4
1.52949 30667
1.54697 31591.3
1.56445 32793.7
1.58193 33810.6
1.59941 34824.2
1.61689 35653
1.63437 36278.8
1.65185 37309.5
1.66933 37798
1.68681 38347.1
1.70429 39210.4
1.72177 39894.2
1.73925 40989.4
1.75673 41848.7
1.77421 42717.8
1.79169 43620.7
1.80917 44316.3
1.82665 44941.3
1.84413 45435.8
1.86161 46386.2
1.87909 47169.1
1.89657 47940.1
1.91405 49057.4
1.93153 50061.8
1.94901 51475.9
1.96649 53176.6
1.98397 54835.2
2.00145 56299.8
2.01893 57062.6
2.03641 57715.9
2.05389 57877.2
2.07137 57955.8
2.08885 58062.3
2.10633 58005.6
2.12381 58185.3
2.14129 58601.8
2.15877 59901.1
2.17625 61553.3
2.19373 63150.1
2.21121 65327.9
2.22869 67149.5
2.24617 69269.9
2.26365 71653.5
2.28113 74191.9
2.29861 77240.9
2.31609 79947.2
2.33357 82700.9
2.35105 85068.2
2.36853 86842.8
2.38601 88558.1
2.40349 90058.9
2.42097 91732
2.43845 93457.5
2.45593 95443.3
2.47341 98107.7
2.49089 100715
2.50837 103716
2.52585 106774
2.54333 110003
2.56081 113385
2.57829 116783
2.59577 120640
2.61325 124200
2.63073 128329
2.64821 132892
2.66569 137313
2.68317 142367
2.70065 146793
2.71813 151457
2.73561 155891
2.75309 159954
2.77057 165224
2.78805 170307
2.80553 176230
2.82301 183145
2.84049 190661
2.85797 201104
2.87545 213659
2.89293 231696
2.91041 259340
2.92789 302507
2.94537 388930
2.96285 550610
2.98033 903693
2.99781 1.71163e+06
3.01529 3.37226e+06
3.03277 6.81346e+06
3.05025 1.16069e+07
3.06773 1.66589e+07
3.08521 1.94779e+07
3.10269 1.93114e+07
3.12017 1.63719e+07
3.13765 1.22197e+07
3.15513 7.79066e+06
3.17261 4.54691e+06
3.19009 2.44328e+06
3.20757 1.29334e+06
3.22505 746292
3.24253 482326
3.26001 366091
3.27749 307816
3.29497 276458
3.31245 259499
3.32993 249379
3.34741 244381
3.36489 243605
3.38237 248547
3.39985 261191
3.41733 291060
3.43481 352736
3.45229 486244
3.46977 805924
3.48725 1.46468e+06
3.50473 2.87442e+06
3.52221 5.00524e+06
3.53969 7.43732e+06
3.55717 9.19656e+06
3.57465 9.5245e+06
3.59213 8.43533e+06
3.60961 6.52184e+06
3.62709 4.37523e+06
3.64457 2.6393e+06
3.66205 1.48748e+06
3.67953 804940
3.69701 471785
3.71449 308457
3.73197 234574
3.74945 197889
3.76693 177678
3.78441 166107
3.80189 158142
3.81937 152758
3.83685 148486
3.85433 145038
3.87181 141859
3.88929 138862
3.90677 136434
3.92425 133964
3.94173 132062
3.95921 130571
3.97669 129292
3.99417 128766
4.01165 128062
4.02913 127491
4.04661 126945
4.06409 126015
4.08157 125171
4.09905 124166
4.11653 123381
4.13401 122825
4.15149 122289
4.16897 122303
4.18645 122212
4.20393 122124
4.22141 122142
4.23889 122014
4.25637 121693
4.27385 121264
4.29133 120786
4.30881 120315
4.32629 119861
4.34377 119547
4.36125 119270
4.37872 119110
4.3962 119108
4.41368 119080
4.43116 119305
4.44864 119706
4.46612 119929
4.4836 120160
4.50108 120580
4.51856 121007
4.53604 121699
4.55352 122839
4.571 124087
4.58848 125783
4.60596 127698
4.62344 129637
4.64092 131992
4.6584 134170
4.67588 136452
4.69336 138879
4.71084 141202
4.72832 143737
4.7458 146240
4.76328 149134
4.78076 152494
4.79824 156296
4.81572 161353
4.8332 167243
4.85068 175267
4.86816 187660
4.88564 206927
4.90312 243925
4.9206 318300
4.93808 472934
4.95556 838657
4.97304 1.53857e+06
4.99052 2.77413e+06
5.008 4.3291e+06
5.02548 5.62842e+06
5.04296 6.15877e+06
5.06044 5.72645e+06
5.07792 4.61861e+06
5.0954 3.25369e+06
5.11288 2.05022e+06
5.13036 1.18368e+06
5.14784 688372
5.16532 424367
5.1828 301305
5.20028 245020
5.21776 216820
5.23524 202517
5.25272 194050
5.2702 188958
5.28768 185290
5.30516 182867
5.32264 181292
5.34012 179916
5.3576 179111
5.37508 178262
5.39256 177656
5.41004 177414
5.42752 177098
5.445 177309
5.46248 177550
5.47996 178023
5.49744 179200
5.51492 180398
5.5324 181927
5.54988 183486
5.56736 185193
5.58484 187447
5.60232 189639
5.6198 192124
5.63728 195068
5.65476 198394
5.67224 202767
5.68972 207736
5.7072 214351
5.72468 223854
5.74216 237950
5.75964 264600
5.77712 314293
5.7946 419471
5.81208 660067
5.82956 1.15317e+06
5.84704 2.15536e+06
5.86452 3.63828e+06
5.882 5.29713e+06
5.89948 6.50578e+06
5.91696 6.70308e+06
5.93444 5.91167e+06
5.95192 4.53825e+06
5.9694 3.07109e+06
5.98688 1.85748e+06
6.00436 1.08633e+06
6.02184 645291
6.03932 441396
6.0568 368970
6.07428 387449
6.09176 505754
6.10924 763941
6.12672 1.17796e+06
6.1442 1.62986e+06
6.16168 1.96039e+06
6.17916 2.00813e+06
6.19664 1.79176e+06
6.21412 1.3925e+06
6.2316 986509
6.24908 642730
6.26656 422364
6.28404 298802
6.30152 234889
6.319 205398
6.33648 189912
6.35396 181059
6.37144 175534
6.38892 171238
6.4064 168130
6.42388 165601
6.44136 163379
6.45884 161492
6.47632 159707
6.4938 158217
6.51128 156939
6.52876 155510
6.54624 154381
6.56372 153334
6.5812 152414
6.59868 151742
6.61616 150797
6.63364 149944
6.65112 149178
6.6686 148398
6.68608 147791
6.70356 147101
6.72104 146477
6.73852 146051
6.756 145601
6.77348 145370
6.79096 145324
6.80844 145282
6.82592 145274
6.8434 145296
6.86088 145342
6.87836 145478
6.89584 145617
6.91332 146127
6.9308 147048
6.94828 148591
6.96576 150969
6.98324 155361
7.00072 164589
7.0182 183573
7.03568 226473
7.05316 313282
7.07064 457098
7.08812 646483
7.1056 811459
7.12308 891779
7.14056 852291
7.15804 723559
7.17552 551866
7.193 397141
7.21048 286157
7.22796 219057
7.24544 185601
7.26292 170089
7.2804 163427
7.29787 160921
7.31535 160182
7.33283 160228
7.35031 160757
7.36779 161750
7.38527 162859
7.40275 164167
7.42023 165733
7.43771 167322
7.45519 169159
7.47267 171218
7.49015 173349
7.50763 175826
7.52511 178459
7.54259 181654
7.56007 185666
7.57755 190393
7.59503 197301
7.61251 208163
7.62999 226726
7.64747 265037
7.66495 347754
7.68243 518844
7.69991 852884
7.71739 1.33198e+06
7.73487 1.85045e+06
7.75235 2.21445e+06
7.76983 2.2596e+06
7.78731 2.00533e+06
7.80479 1.5573e+06
7.82227 1.10366e+06
7.83975 744864
7.85723 554925
7.87471 529067
7.89219 687259
7.90967 1.02047e+06
7.92715 1.47057e+06
7.94463 1.88033e+06
7.96211 2.0613e+06
7.97959 1.95771e+06
7.99707 1.61127e+06
8.01455 1.18627e+06
8.03203 790644
8.04951 515682
8.06699 353946
8.08447 269811
8.10195 230288
8.11943 211086
8.13691 201056
8.15439 194908
8.17187 190921
8.18935 188140
8.20683 185726
8.22431 184022
8.24179 182473
8.25927 181084
8.27675 180133
8.29423 179050
8.31171 178251
8.32919 177790
8.34667 177111
8.36415 176799
8.38163 176893
8.39911 176632
8.41659 176781
8.43407 177364
8.45155 177723
8.46903 178448
8.48651 179259
8.50399 180271
8.52147 181866
8.53895 183867
8.55643 187163
8.57391 193377
8.59139 204556
8.60887 228480
8.62635 283710
8.64383 397105
8.66131 607145
8.67879 903719
8.69627 1.20126e+06
8.71375 1.39255e+06
8.73123 1.39267e+06
8.74871 1.21573e+06
8.76619 935856
8.78367 659517
8.80115 446875
8.81863 314883
8.83611 246103
8.85359 213283
8.87107 198284
8.88855 190886
8.90603 187014
8.92351 185042
8.94099 183424
8.95847 182244
8.97595 181779
8.99343 181023
9.01091 180782
9.02839 180983
9.04587 181518
9.06335 182866
9.08083 185497
9.09831 190126
9.11579 200154
9.13327 221492
9.15075 268054
9.16823 373532
9.18571 568256
9.20319 856790
9.22067 1.17384e+06
9.23815 1.39241e+06
9.25563 1.42847e+06
9.27311 1.27214e+06
9.29059 997870
9.30807 705880
9.32555 473141
9.34303 325320
9.36051 244502
9.37799 205752
9.39547 187676
9.41295 178585
9.43043 173818
9.44791 170433
9.46539 168084
9.48287 166497
9.50035 165014
9.51783 163788
9.53531 163019
9.55279 161973
9.57027 161194
9.58775 160765
9.60523 160145
9.62271 159613
9.64019 159377
9.65767 159006
9.67515 158920
9.69263 159095
9.71011 159006
9.72759 159182
9.74507 159402
9.76255 159724
9.78003 160197
9.79751 160700
9.81499 161114
9.83247 161956
9.84995 162762
9.86743 163556
9.88491 164753
9.90239 166344
9.91987 168412
9.93735 172370
9.95483 179672
9.97231 195042
9.98979 227807
10.0073 285311
10.0247 363667
10.0422 442522
10.0597 490630
10.0772 488640
10.0947 440268
10.1121 367447
10.1296 296149
10.1471 242416
10.1646 210824
10.1821 195120
10.1995 188365
10.217 186222
10.2345 185832
10.252 186505
10.2695 187699
10.2869 189227
10.3044 191064
10.3219 193517
10.3394 196163
10.3569 199887
10.3743 205560
10.3918 214766
10.4093 232824
10.4268 272510
10.4443 355353
10.4617 516268
10.4792 758262
10.4967 1.02334e+06
10.5142 1.21961e+06
10.5317 1.26938e+06
10.5491 1.1559e+06
10.5666 943266
10.5841 727603
10.6016 595893
10.6191 583602
10.6365 670195
10.654 779361
10.6715 839274
10.689 809727
10.7065 698199
10.7239 549499
10.7414 410805
10.7589 312176
10.7764 254128
10.7939 224554
10.8113 210367
10.8288 202969
10.8463 198627
10.8638 195950
10.8813 193581
10.8987 191710
10.9162 190373
10.9337 189093
10.9512 187864
10.9687 187104
10.9861 186175
11.0036 185402
11.0211 184613
11.0386 184168
11.0561 184383
11.0735 184782
11.091 185511
11.1085 187348
11.126 191570
11.1435 201106
11.1609 222494
11.1784 267263
11.1959 343225
11.2134 438472
11.2309 524638
11.2483 567351
11.2658 548685
11.2833 479345
11.3008 387651
11.3183 304405
11.3357 245182
11.3532 211798
11.3707 195476
11.3882 188046
11.4057 184658
11.4231 183500
11.4406 182797
11.4581 182602
11.4756 183067
11.4931 183767
11.5105 185129
11.528 189000
11.5455 194015
11.563 203949
11.5805 229117
11.5979 277699
11.6154 351588
11.6329 435933
11.6504 500916
11.6679 520813
11.6853 492362
11.7028 435891
11.7203 386140
11.7378 374357
11.7553 407997
11.7727 461799
11.7902 498663
11.8077 494061
11.8252 446372
11.8427 373154
11.8601 299453
11.8776 244152
11.8951 210729
11.9126 193552
11.9301 185402
11.9475 181471
11.965 179176
11.9825 177810
12 177051
12.0175 176188
12.0349 175512
12.0524 175116
12.0699 174837
12.0874 174484
12.1049 174288
12.1223 174317
12.1398 174262
12.1573 174445
12.1748 175062
12.1923 176004
12.2097 177768
12.2272 181859
12.2447 190633
12.2622 205944
12.2797 227352
12.2971 248575
12.3146 261363
12.3321 260970
12.3496 248012
12.3671 228560
12.3845 209572
12.402 195616
12.4195 188379
12.437 185053
12.4545 184231
12.4719 184470
12.4894 185437
12.5069 186714
12.5244 188164
12.5419 190608
12.5593 194335
12.5768 200795
12.5943 214385
12.6118 243574
12.6293 300641
12.6467 393968
12.6642 507756
12.6817 604450
12.6992 645855
12.7167 620639
12.7341 547453
12.7516 466228
12.7691 415995
12.7866 407370
12.8041 419971
12.8215 424701
12.839 404516
12.8565 361210
12.874 308068
12.8915 261440
12.9089 229606
12.9264 212361
12.9439 203760
12.9614 199839
12.9789 197801
12.9963 196826
13.0138 196291
13.0313 195969
13.0488 196237
13.0663 196617
13.0837 196865
13.1012 197387
13.1187 198269
13.1362 199392
13.1537 201178
13.1711 204282
13.1886 210690
13.2061 223794
13.2236 252489
13.2411 308375
13.2585 391703
13.276 481433
13.2935 546280
13.311 559689
13.3285 517257
13.3459 437955
13.3634 351897
13.3809 284576
13.3984 243513
13.4159 223017
13.4333 213894
13.4508 210532
13.4683 209340
13.4858 209433
13.5033 210705
13.5207 213783
13.5382 220372
13.5557 236030
13.5732 271698
13.5907 341835
13.6081 448354
13.6256 566629
13.6431 652511
13.6606 673002
13.6781 619324
13.6955 515699
13.713 401029
13.7305 309039
13.748 251486
13.7655 222094
13.7829 208235
13.8004 201584
13.8179 197718
13.8354 195097
13.8529 193309
13.8703 191923
13.8878 190646
13.9053 189380
13.9228 188270
13.9403 187494
13.9577 186625
13.9752 185975
13.9927 185470
14.0102 184979
14.0277 184413
14.0451 183834
14.0626 183613
14.0801 183581
14.0976 183860
14.1151 184413
14.1325 186022
14.15 189867
14.1675 196502
14.185 204179
14.2025 210768
14.2199 213980
14.2374 212127
14.2549 206139
14.2724 198780
14.2899 192455
14.3073 188340
14.3248 186348
14.3423 185622
14.3598 185745
14.3773 186343
14.3947 187320
14.4122 188571
14.4297 190839
14.4472 195207
14.4647 204082
14.4821 220699
14.4996 247024
14.5171 278033
14.5346 303805
14.5521 317259
14.5695 319867
14.587 323803
14.6045 342321
14.622 375688
14.6394 407909
14.6569 420042
14.6744 401412
14.6919 356582
14.7094 301543
14.7268 254237
14.7443 223049
14.7618 206963
14.7793 199520
14.7968 195881
14.8142 194038
14.8317 193337
14.8492 192790
14.8667 192732
14.8842 192618
14.9016 192765
14.9191 193282
14.9366 194197
14.9541 195770
14.9716 198982
14.989 206381
15.0065 221962
15.024 249455
15.0415 284953
15.059 318544
15.0764 336504
15.0939 332116
15.1114 307722
15.1289 273440
15.1464 241536
15.1638 220153
15.1813 208575
15.1988 203760
15.2163 202207
15.2338 202349
15.2512 203545
15.2687 206108
15.2862 211933
15.3037 224410
15.3212 250313
15.3386 293475
15.3561 345758
15.3736 389805
15.3911 409080
15.4086 399553
15.426 371205
15.4435 340060
15.461 319171
15.4785 307854
15.496 298448
15.5134 283839
15.5309 262733
15.5484 240613
15.5659 222693
15.5834 211444
15.6008 205859
15.6183 203044
15.6358 201549
15.6533 200542
15.6708 199884
15.6882 199731
15.7057 199535
15.7232 199530
15.7407 199587
15.7582 199741
15.7756 200839
15.7931 203228
15.8106 208410
15.8281 218833
15.8456 234887
15.863 253606
15.8805 267703
15.898 271280
15.9155 263890
15.933 248388
15.9504 231158
15.9679 217674
15.9854 209989
16.0029 206516
16.0204 205665
16.0378 205913
16.0553 207392
16.0728 211176
16.0903 218823
16.1078 235284
16.1252 267075
16.1427 313914
16.1602 364957
16.1777 401821
16.1952 412835
16.2126 401160
16.2301 380645
16.2476 364617
16.2651 356833
16.2826 349546
16.3 332700
16.3175 304403
16.335 270839
16.3525 241174
16.37 221278
16.3874 210946
16.4049 205752
16.4224 203195
16.4399 201583
16.4574 200302
16.4748 199280
16.4923 198823
16.5098 198458
16.5273 198156
16.5448 198144
16.5622 199063
16.5797 201770
16.5972 208296
16.6147 219823
16.6322 234117
16.6496 246099
16.6671 250850
16.6846 246373
16.7021 234628
16.7196 220545
16.737 208487
16.7545 200843
16.772 196970
16.7895 195480
16.807 195024
16.8244 195511
16.8419 197794
16.8594 203126
16.8769 214509
16.8944 234218
16.9118 259407
16.9293 280751
16.9468 290036
16.9643 283393
16.9818 264184
16.9992 239736
17.0167 218088
17.0342 204020
17.0517 196569
17.0692 193124
17.0866 191886
17.1041 191115
17.1216 190509
17.1391 190303
17.1566 190218
17.174 190238
17.1915 190169
17.209 190217
17.2265 190455
17.244 190809
17.2614 191169
17.2789 191842
17.2964 193048
17.3139 195222
17.3314 199771
17.3488 208119
17.3663 219586
17.3838 230428
17.4013 236590
17.4188 235803
17.4362 228602
17.4537 218708
17.4712 209354
17.4887 203300
17.5062 200876
17.5236 200328
17.5411 201159
17.5586 203159
17.5761 207541
17.5936 216803
17.611 235231
17.6285 263038
17.646 294722
17.6635 318336
17.681 325905
17.6984 318187
17.7159 301668
17.7334 284792
17.7509 271680
17.7684 261296
17.7858 249880
17.8033 236536
17.8208 223558
17.8383 213819
17.8558 208250
17.8732 205522
17.8907 204406
17.9082 203981
17.9257 203882
17.9432 203905
17.9606 204281
17.9781 204743
17.9956 206201
18.0131 209167
18.0306 215829
18.048 229628
18.0655 252248
18.083 278781
18.1005 298913
18.118 304854
18.1354 294490
18.1529 272366
18.1704 247181
18.1879 227508
18.2054 215973
18.2228 210670
18.2403 208945
18.2578 209423
18.2753 211922
18.2928 218587
18.3102 232468
18.3277 254319
18.3452 278630
18.3627 296331
18.3802 301286
18.3976 294863
18.4151 282393
18.4326 269253
18.4501 258295
18.4676 248615
18.485 237804
18.5025 226074
18.52 215190
18.5375 207391
18.555 202693
18.5724 200580
18.5899 199109
18.6074 198238
18.6249 197713
18.6424 197264
18.6598 196682
18.6773 196367
18.6948 196043
18.7123 195756
18.7298 195636
18.7472 195644
18.7647 195572
18.7822 195616
18.7997 195614
18.8172 195624
18.8346 195742
18.8521 196132
18.8696 196502
18.8871 196930
18.9046 197448
18.922 198344
18.9395 200004
18.957 202811
18.9745 208588
18.992 218866
19.0094 232618
19.0269 246124
19.0444 255931
19.0619 262473
19.0794 268801
19.0968 275303
19.1143 279091
19.1318 276386
19.1493 265359
19.1668 247671
19.1842 228830
19.2017 214114
19.2192 205594
19.2367 201582
19.2542 199616
19.2716 198574
19.2891 198015
19.3066 197745
19.3241 197320
19.3416 197601
19.359 198980
19.3765 201970
19.394 208605
19.4115 218574
19.429 229018
19.4464 235611
19.4639 235223
19.4814 228587
19.4989 218358
19.5164 208232
19.5338 201207
19.5513 197550
19.5688 196008
19.5863 195871
19.6038 197043
19.6212 200342
19.6387 207204
19.6562 216897
19.6737 225929
19.6912 230880
19.7086 229310
19.7261 221981
19.7436 212292
19.7611 203256
19.7786 197375
19.796 194547
19.8135 193043
19.831 192273
19.8485 191921
19.866 191797
19.8834 191715
19.9009 191711
19.9184 191626
19.9359 191775
19.9534 191976
19.9708 192328
19.9883 192853
20.0058 193351
20.0233 194722
20.0408 196823
20.0582 199408
20.0757 201536
20.0932 202719
20.1107 202350
20.1282 201085
20.1456 199561
20.1631 198539
20.1806 198442
20.1981 199263
20.2156 201092
20.233 204815
20.2505 212642
20.268 227153
20.2855 247753
20.303 267863
20.3204 279886
20.3379 281411
20.3554 274119
20.3729 262628
20.3904 250796
20.4078 240578
20.4253 230853
20.4428 221129
20.4603 212193
20.4777 206054
20.4952 202777
20.5127 201077
20.5302 200223
20.5477 199941
20.5651 199736
20.5826 199706
20.6001 200002
20.6176 200917
20.6351 203442
20.6525 208474
20.67 215500
20.6875 222365
20.705 225509
20.7225 223962
20.7399 218821
20.7574 211826
20.7749 205818
20.7924 202252
20.8099 200875
20.8273 201042
20.8448 202477
20.8623 205948
20.8798 213241
20.8973 223235
20.9147 232709
20.9322 239145
20.9497 240629
20.9672 239032
20.9847 235450
21.0021 231062
21.0196 225623
21.0371 218876
21.0546 211134
21.0721 204874
21.0895 200437
21.107 197955
21.1245 196900
21.142 195786
21.1595 195512
21.1769 195137
21.1944 195293
21.2119 195372
21.2294 196232
21.2469 198281
21.2643 201395
21.2818 204818
21.2993 206894
21.3168 206648
21.3343 204333
21.3517 200982
21.3692 197575
21.3867 195506
21.4042 194502
21.4217 194402
21.4391 195160
21.4566 197450
21.4741 201919
21.4916 208190
21.5091 214035
21.5265 217220
21.544 216939
21.5615 214433
21.579 210423
21.5965 206695
21.6139 203167
21.6314 200187
21.6489 197084
21.6664 194607
21.6839 193160
21.7013 192277
21.7188 192229
21.7363 191826
21.7538 192046
21.7713 192586
21.7887 193120
21.8062 194581
21.8237 197922
21.8412 203594
21.8587 210523
21.8761 216427
21.8936 218008
21.9111 215250
21.9286 209074
21.9461 202315
21.9635 197510
21.981 194908
21.9985 194676
22.016 195632
22.0335 198521
22.0509 204631
22.0684 212937
22.0859 220802
22.1034 224403
22.1209 221924
22.1383 214746
22.1558 205710
22.1733 198266
22.1908 194294
22.2083 192410
22.2257 191440
22.2432 190802
