*RAS_DATA_START
*RAS_HEADER_START
*CORR_POS_DB_NAME "correction_file_060219"
*CORR_POS_GONIO_RADIUS ""
*CORR_POS_NODE_INDEX01 ""
*CORR_POS_NODE_INDEX02 ""
*CORR_POS_NODE_INDEX03 ""
*CORR_POS_NODE_INDEX04 ""
*CORR_POS_NODE_INDEX05 ""
*CORR_POS_NODE_INDEX06 ""
*CORR_POS_NODE_INDEX07 ""
*CORR_POS_NODE_INDEX08 ""
*CORR_POS_NODE_INDEX09 ""
*CORR_POS_NODE_INDEX10 ""
*CORR_POS_NODE_INDEX11 ""
*CORR_POS_NODE_LABEL01 "Si(111)"
*CORR_POS_NODE_LABEL02 "Si(220)"
*CORR_POS_NODE_LABEL03 "Si(311)"
*CORR_POS_NODE_LABEL04 "Si(400)"
*CORR_POS_NODE_LABEL05 "Si(331)"
*CORR_POS_NODE_LABEL06 "Si(422)"
*CORR_POS_NODE_LABEL07 "Si(511)"
*CORR_POS_NODE_LABEL08 "Si(440)"
*CORR_POS_NODE_LABEL09 "Si(531)"
*CORR_POS_NODE_LABEL10 "Si(620)"
*CORR_POS_NODE_LABEL11 "Si(533)"
*CORR_POS_NODE_POS_CALC01 "28.4137"
*CORR_POS_NODE_POS_CALC02 "47.2707"
*CORR_POS_NODE_POS_CALC03 "56.0883"
*CORR_POS_NODE_POS_CALC04 "69.0934"
*CORR_POS_NODE_POS_CALC05 "76.3385"
*CORR_POS_NODE_POS_CALC06 "87.9915"
*CORR_POS_NODE_POS_CALC07 "94.9137"
*CORR_POS_NODE_POS_CALC08 "106.67"
*CORR_POS_NODE_POS_CALC09 "114.054"
*CORR_POS_NODE_POS_CALC10 "127.508"
*CORR_POS_NODE_POS_CALC11 "136.858"
*CORR_POS_NODE_POS_MEAS01 "28.4636"
*CORR_POS_NODE_POS_MEAS02 "47.3217"
*CORR_POS_NODE_POS_MEAS03 "56.1422"
*CORR_POS_NODE_POS_MEAS04 "69.1431"
*CORR_POS_NODE_POS_MEAS05 "76.3906"
*CORR_POS_NODE_POS_MEAS06 "88.0416"
*CORR_POS_NODE_POS_MEAS07 "94.9694"
*CORR_POS_NODE_POS_MEAS08 "106.719"
*CORR_POS_NODE_POS_MEAS09 "114.106"
*CORR_POS_NODE_POS_MEAS10 "127.554"
*CORR_POS_NODE_POS_MEAS11 "136.911"
*CORR_POS_OPT_ATTR "集中法"
*CORR_POS_PARAM_MU ""
*CORR_POS_PARAM_PL ""
*CORR_POS_SEMODEL_TYPE "0"
*CORR_POS_STANDARD_TYPE ""
*CORR_POS_VALUE_ANALYZER "None"
*CORR_POS_VALUE_CMONO "None"
*CORR_POS_VALUE_IMONO "None"
*CORR_POS_VALUE_IS "0.625deg"
*CORR_POS_VALUE_ISL "10.0mm"
*CORR_POS_VALUE_ISOLLER "2.5deg"
*CORR_POS_VALUE_RS1 "13.0mm"
*CORR_POS_VALUE_RS2 "13.0mm"
*CORR_POS_VALUE_RSOLLER "2.5deg"
*CORR_POS_XG_FOCUS_L ""
*CORR_POS_XG_WAVE_TYPE ""
*CORR_POS_XG_WAVE_VALUE ""
*DISP_FMT_X "%.2f"
*DISP_FMT_Y "%.0f"
*DISP_FULLSCALE "17040.0000000000"
*DISP_LINE_COLOR "255.0000000000"
*DISP_LINE_STYLE "0.0000000000"
*DISP_LINE_WIDTH "0.2500000000"
*DISP_NOTE "Collected Data-4"
*DISP_OFFSET_Y "0.0000000000"
*DISP_PEAKSEARCH_UNIT_Y "cps"
*DISP_RANGE_BOTTOM "0.0000000000"
*DISP_RANGE_LEFT "5.0000000000"
*DISP_RANGE_LOGCUTOFF "0.0100000000"
*DISP_RANGE_RIGHT "90.0000000000"
*DISP_RANGE_TOP "17040.0000000000"
*DISP_SCALE_MODE_Y "0.0000000000"
*DISP_TAB_NAME "Theta/2-Theta"
*DISP_TITLE_Y "Intensity"
*DISP_UNIT_Y "cps"
*DISP_WINDOW_NAME "MSG_MACROENGINE"
*FILE_COMMENT " "
*FILE_MD5 ""
*FILE_MEMO " "
*FILE_OPERATOR "sdu_rigaku"
*FILE_SAMPLE "TiO2-1-6h"
*FILE_TYPE "RAS_RAW"
*FILE_USERGROUP "System User"
*FILE_VERSION "1.0000000000"
*HW_ATTACHMENT_ID "ATT1031"
*HW_ATTACHMENT_NAME "6サンプルチェンジャ|ASC-6"
*HW_COUNTER_ID-0 "CUT0025"
*HW_COUNTER_ID-1 "CUT0020"
*HW_COUNTER_ID-2 "CUT0020"
*HW_COUNTER_ID-3 "CMC0021"
*HW_COUNTER_NAME-0 "D/teX Ultra|D/teX Ultra"
*HW_COUNTER_NAME-1 "None|None"
*HW_COUNTER_NAME-2 "None|None"
*HW_COUNTER_NAME-3 "検出器モノクロメータ|Detector monochromator"
*HW_COUNTER_SELECT_NAME "D/teX Ultra|D/teX Ultra"
*HW_GONIOMETER_ID "GON0070"
*HW_GONIOMETER_NAME "MiniFlex 300/600|MiniFlex 300/600"
*HW_GONIOMETER_RADIUS-0 "79.0"
*HW_GONIOMETER_RADIUS-1 "91.5"
*HW_GONIOMETER_RADIUS-2 "150.0"
*HW_GONIOMETER_RADIUS-3 "0"
*HW_GONIOMETER_RADIUS-4 "103.4"
*HW_GONIOMETER_RADIUS-5 "150.0"
*HW_GONIOMETER_RADIUS-6 "46.6"
*HW_GONIOMETER_RADIUS-7 "160.0"
*HW_I_OPT_ID-0 "ISL0021"
*HW_I_OPT_ID-1 "ISO0021"
*HW_I_OPT_NAME-0 "発散スリット|Divergence slit"
*HW_I_OPT_NAME-1 "入射平行スリット|Incident parallel slit"
*HW_R_ATTENUATER_AUTOMODE "0"
*HW_R_OPT_ID-0 "RSS0021"
*HW_R_OPT_ID-1 "RSO0021"
*HW_R_OPT_ID-2 "RRS0021"
*HW_R_OPT_NAME-0 "散乱スリット|Scattering slit"
*HW_R_OPT_NAME-1 "受光平行スリット|Receiving soller slit"
*HW_R_OPT_NAME-2 "受光スリット|Receiving slit"
*HW_SAMPLE_HOLDER_ID "SMP0000"
*HW_SAMPLE_HOLDER_NAME "無し|None"
*HW_XG_CURRENT_MAX "15"
*HW_XG_CURRENT_MIN "2"
*HW_XG_CURRENT_RESOLUTION "1"
*HW_XG_CURRENT_UNIT "mA"
*HW_XG_FOCUS "1mm x 10mm"
*HW_XG_FOCUS_TYPE "Normal"
*HW_XG_ID ""
*HW_XG_NAME "300W/600W 封入管-B|300W/600W Sealed tube-B"
*HW_XG_TARGET_ATOMIC_NUMBER "29.0000000000"
*HW_XG_TARGET_NAME "Cu"
*HW_XG_TYPE "Hermetic"
*HW_XG_VOLTAGE_MAX "40"
*HW_XG_VOLTAGE_MIN "20"
*HW_XG_VOLTAGE_RESOLUTION "1"
*HW_XG_VOLTAGE_UNIT "kV"
*HW_XG_WATT_MAX "1"
*HW_XG_WATT_UNIT "kW"
*HW_XG_WAVE_LENGTH_ALPHA1 "1.540593"
*HW_XG_WAVE_LENGTH_ALPHA2 "1.544414"
*HW_XG_WAVE_LENGTH_BETA "1.392250"
*MEAS_COND_AXIS_NAME-0 "Theta/2-Theta"
*MEAS_COND_AXIS_NAME-1 "Spin"
*MEAS_COND_AXIS_NAME-2 "Change"
*MEAS_COND_AXIS_NAME-3 "Soller(inc.)"
*MEAS_COND_AXIS_NAME-4 "IHS"
*MEAS_COND_AXIS_NAME-5 "DS"
*MEAS_COND_AXIS_NAME-6 "SS"
*MEAS_COND_AXIS_NAME-7 "Soller(rec.)"
*MEAS_COND_AXIS_NAME-8 "RS"
*MEAS_COND_AXIS_NAME-9 "Filter"
*MEAS_COND_AXIS_NAME-10 "Monochromator"
*MEAS_COND_AXIS_NAME-11 "PHA"
*MEAS_COND_AXIS_NAME_INTERNAL-0 "TwoThetaTheta"
*MEAS_COND_AXIS_NAME_INTERNAL-1 "Spin"
*MEAS_COND_AXIS_NAME_INTERNAL-2 "Change"
*MEAS_COND_AXIS_NAME_INTERNAL-3 "IncidentSollerSlit"
*MEAS_COND_AXIS_NAME_INTERNAL-4 "IncidentAxdSlit"
*MEAS_COND_AXIS_NAME_INTERNAL-5 "IncidentSlitBox"
*MEAS_COND_AXIS_NAME_INTERNAL-6 "ReceivingSlitBox1"
*MEAS_COND_AXIS_NAME_INTERNAL-7 "ReceivingSollerSlit"
*MEAS_COND_AXIS_NAME_INTERNAL-8 "ReceivingSlitBox2"
*MEAS_COND_AXIS_NAME_INTERNAL-9 "Filter"
*MEAS_COND_AXIS_NAME_INTERNAL-10 "CounterMonochromator"
*MEAS_COND_AXIS_NAME_INTERNAL-11 "PHA"
*MEAS_COND_AXIS_NAME_MAGICNO-0 "268632064.0000000000"
*MEAS_COND_AXIS_NAME_MAGICNO-1 "16842752.0000000000"
*MEAS_COND_AXIS_NAME_MAGICNO-2 "16842752.0000000000"
*MEAS_COND_AXIS_NAME_MAGICNO-3 "20971521.0000000000"
*MEAS_COND_AXIS_NAME_MAGICNO-4 "22020097.0000000000"
*MEAS_COND_AXIS_NAME_MAGICNO-5 "22020097.0000000000"
*MEAS_COND_AXIS_NAME_MAGICNO-6 "23068673.0000000000"
*MEAS_COND_AXIS_NAME_MAGICNO-7 "20971521.0000000000"
*MEAS_COND_AXIS_NAME_MAGICNO-8 "23068673.0000000000"
*MEAS_COND_AXIS_NAME_MAGICNO-9 "20971521.0000000000"
*MEAS_COND_AXIS_NAME_MAGICNO-10 "20971521.0000000000"
*MEAS_COND_AXIS_NAME_MAGICNO-11 "0.0000000000"
*MEAS_COND_AXIS_OFFSET-0 "0.0000000000"
*MEAS_COND_AXIS_OFFSET-1 "-"
*MEAS_COND_AXIS_OFFSET-2 "-"
*MEAS_COND_AXIS_OFFSET-3 "-"
*MEAS_COND_AXIS_OFFSET-4 "-"
*MEAS_COND_AXIS_OFFSET-5 "-"
*MEAS_COND_AXIS_OFFSET-6 "-"
*MEAS_COND_AXIS_OFFSET-7 "-"
*MEAS_COND_AXIS_OFFSET-8 "-"
*MEAS_COND_AXIS_OFFSET-9 "-"
*MEAS_COND_AXIS_OFFSET-10 "-"
*MEAS_COND_AXIS_OFFSET-11 "-"
*MEAS_COND_AXIS_POSITION-0 "92.5100000000"
*MEAS_COND_AXIS_POSITION-1 "0.0000000000"
*MEAS_COND_AXIS_POSITION-2 "4.0000000000"
*MEAS_COND_AXIS_POSITION-3 "2.5deg"
*MEAS_COND_AXIS_POSITION-4 "10.0mm"
*MEAS_COND_AXIS_POSITION-5 "0.625deg"
*MEAS_COND_AXIS_POSITION-6 "13.0mm"
*MEAS_COND_AXIS_POSITION-7 "2.5deg"
*MEAS_COND_AXIS_POSITION-8 "13.0mm"
*MEAS_COND_AXIS_POSITION-9 "K-beta(x1)"
*MEAS_COND_AXIS_POSITION-10 "None"
*MEAS_COND_AXIS_POSITION-11 "49.0000000000"
*MEAS_COND_AXIS_UNIT-0 "deg"
*MEAS_COND_AXIS_UNIT-1 ""
*MEAS_COND_AXIS_UNIT-2 ""
*MEAS_COND_AXIS_UNIT-3 ""
*MEAS_COND_AXIS_UNIT-4 ""
*MEAS_COND_AXIS_UNIT-5 ""
*MEAS_COND_AXIS_UNIT-6 ""
*MEAS_COND_AXIS_UNIT-7 ""
*MEAS_COND_AXIS_UNIT-8 ""
*MEAS_COND_AXIS_UNIT-9 ""
*MEAS_COND_AXIS_UNIT-10 ""
*MEAS_COND_AXIS_UNIT-11 "div"
*MEAS_COND_CORRECTION_SLIT_COUNTERMONO "None"
*MEAS_COND_CORRECTION_SLIT_DS "0.625deg"
*MEAS_COND_CORRECTION_SLIT_FILTER "None"
*MEAS_COND_CORRECTION_SLIT_IHS "10.0mm"
*MEAS_COND_CORRECTION_SLIT_RS "13.0mm"
*MEAS_COND_CORRECTION_SLIT_SOLLER_INC "2.5deg"
*MEAS_COND_CORRECTION_SLIT_SOLLER_REC "2.5deg"
*MEAS_COND_CORRECTION_SLIT_SS "13.0mm"
*MEAS_COND_COUNTER_CNTLOSS_CORR "0.0000000000"
*MEAS_COND_COUNTER_PHABASE "49.0000000000"
*MEAS_COND_COUNTER_PHAWINDOW "8.0000000000"
*MEAS_COND_COUNTER_PHA_UNIT "div"
*MEAS_COND_COUNTER_TAUDIFF "0.2500000000"
*MEAS_COND_COUNTER_TAUINT "0.7500000000"
*MEAS_COND_IRRADIATION_MODE "OFF"
*MEAS_COND_IRRADIATION_WIDTH ""
*MEAS_COND_OPT_ATTR " "
*MEAS_COND_OPT_NAME ""
*MEAS_COND_UNSYMMETRIC_MODE "OFF"
*MEAS_COND_XG_CURRENT "15.0000000000"
*MEAS_COND_XG_VOLTAGE "40.0000000000"
*MEAS_COND_XG_WAVE_TYPE "Ka"
*MEAS_DATA_COUNT "4251.0000000000"
*MEAS_SCAN_AXIS_X "Theta/2-Theta"
*MEAS_SCAN_AXIS_X_INTERNAL "TwoThetaTheta"
*MEAS_SCAN_END_TIME "02/18/19 13:24:59"
*MEAS_SCAN_MODE "CONTINUOUS"
*MEAS_SCAN_MONITOR "0"
*MEAS_SCAN_RESOLUTION_X "0.005"
*MEAS_SCAN_SPEED "5.000"
*MEAS_SCAN_SPEED_UNIT "deg/min"
*MEAS_SCAN_START "5.0000000000"
*MEAS_SCAN_START_TIME "02/18/19 13:06:36"
*MEAS_SCAN_STEP "0.0200000000"
*MEAS_SCAN_STOP "90.0000000000"
*MEAS_SCAN_UNIT_X "deg"
*MEAS_SCAN_UNIT_Y "counts"
*SLIT_SYSTEM "0"
*RAS_HEADER_END
*RAS_INT_START
5.000 398.000 1.000
5.020 379.000 1.000
5.040 402.000 1.000
5.060 419.000 1.000
5.080 399.000 1.000
5.100 412.000 1.000
5.120 390.000 1.000
5.140 389.000 1.000
5.160 387.000 1.000
5.180 377.000 1.000
5.200 400.000 1.000
5.220 395.000 1.000
5.240 374.000 1.000
5.260 355.000 1.000
5.280 363.000 1.000
5.300 375.000 1.000
5.320 356.000 1.000
5.340 344.000 1.000
5.360 336.000 1.000
5.380 331.000 1.000
5.400 346.000 1.000
5.420 332.000 1.000
5.440 316.000 1.000
5.460 332.000 1.000
5.480 361.000 1.000
5.500 370.000 1.000
5.520 352.000 1.000
5.540 344.000 1.000
5.560 359.000 1.000
5.580 345.000 1.000
5.600 335.000 1.000
5.620 331.000 1.000
5.640 320.000 1.000
5.660 335.000 1.000
5.680 329.000 1.000
5.700 328.000 1.000
5.720 320.000 1.000
5.740 306.000 1.000
5.760 298.000 1.000
5.780 300.000 1.000
5.800 280.000 1.000
5.820 287.000 1.000
5.840 277.000 1.000
5.860 287.000 1.000
5.880 278.000 1.000
5.900 294.000 1.000
5.920 312.000 1.000
5.940 308.000 1.000
5.960 299.000 1.000
5.980 286.000 1.000
6.000 308.000 1.000
6.020 304.000 1.000
6.040 294.000 1.000
6.060 284.000 1.000
6.080 261.000 1.000
6.100 285.000 1.000
6.120 288.000 1.000
6.140 269.000 1.000
6.160 283.000 1.000
6.180 264.000 1.000
6.200 270.000 1.000
6.220 290.000 1.000
6.240 272.000 1.000
6.260 266.000 1.000
6.280 274.000 1.000
6.300 271.000 1.000
6.320 267.000 1.000
6.340 272.000 1.000
6.360 250.000 1.000
6.380 243.000 1.000
6.400 248.000 1.000
6.420 259.000 1.000
6.440 251.000 1.000
6.460 252.000 1.000
6.480 248.000 1.000
6.500 257.000 1.000
6.520 248.000 1.000
6.540 256.000 1.000
6.560 262.000 1.000
6.580 243.000 1.000
6.600 242.000 1.000
6.620 231.000 1.000
6.640 241.000 1.000
6.660 248.000 1.000
6.680 250.000 1.000
6.700 250.000 1.000
6.720 235.000 1.000
6.740 242.000 1.000
6.760 240.000 1.000
6.780 233.000 1.000
6.800 244.000 1.000
6.820 240.000 1.000
6.840 244.000 1.000
6.860 260.000 1.000
6.880 246.000 1.000
6.900 242.000 1.000
6.920 232.000 1.000
6.940 234.000 1.000
6.960 239.000 1.000
6.980 246.000 1.000
7.000 251.000 1.000
7.020 230.000 1.000
7.040 231.000 1.000
7.060 243.000 1.000
7.080 241.000 1.000
7.100 214.000 1.000
7.120 211.000 1.000
7.140 222.000 1.000
7.160 220.000 1.000
7.180 221.000 1.000
7.200 206.000 1.000
7.220 212.000 1.000
7.240 236.000 1.000
7.260 233.000 1.000
7.280 208.000 1.000
7.300 196.000 1.000
7.320 212.000 1.000
7.340 214.000 1.000
7.360 206.000 1.000
7.380 224.000 1.000
7.400 221.000 1.000
7.420 223.000 1.000
7.440 232.000 1.000
7.460 220.000 1.000
7.480 202.000 1.000
7.500 205.000 1.000
7.520 204.000 1.000
7.540 219.000 1.000
7.560 227.000 1.000
7.580 222.000 1.000
7.600 222.000 1.000
7.620 230.000 1.000
7.640 227.000 1.000
7.660 233.000 1.000
7.680 238.000 1.000
7.700 217.000 1.000
7.720 207.000 1.000
7.740 215.000 1.000
7.760 214.000 1.000
7.780 201.000 1.000
7.800 190.000 1.000
7.820 196.000 1.000
7.840 217.000 1.000
7.860 223.000 1.000
7.880 207.000 1.000
7.900 196.000 1.000
7.920 197.000 1.000
7.940 218.000 1.000
7.960 214.000 1.000
7.980 198.000 1.000
8.000 197.000 1.000
8.020 199.000 1.000
8.040 198.000 1.000
8.060 180.000 1.000
8.080 185.000 1.000
8.100 196.000 1.000
8.120 199.000 1.000
8.140 203.000 1.000
8.160 218.000 1.000
8.180 216.000 1.000
8.200 208.000 1.000
8.220 210.000 1.000
8.240 204.000 1.000
8.260 216.000 1.000
8.280 213.000 1.000
8.300 190.000 1.000
8.320 184.000 1.000
8.340 189.000 1.000
8.360 201.000 1.000
8.380 205.000 1.000
8.400 179.000 1.000
8.420 169.000 1.000
8.440 185.000 1.000
8.460 191.000 1.000
8.480 215.000 1.000
8.500 208.000 1.000
8.520 191.000 1.000
8.540 185.000 1.000
8.560 180.000 1.000
8.580 184.000 1.000
8.600 193.000 1.000
8.620 189.000 1.000
8.640 176.000 1.000
8.660 180.000 1.000
8.680 181.000 1.000
8.700 176.000 1.000
8.720 185.000 1.000
8.740 177.000 1.000
8.760 170.000 1.000
8.780 175.000 1.000
8.800 184.000 1.000
8.820 182.000 1.000
8.840 173.000 1.000
8.860 186.000 1.000
8.880 196.000 1.000
8.900 195.000 1.000
8.920 185.000 1.000
8.940 180.000 1.000
8.960 182.000 1.000
8.980 191.000 1.000
9.000 191.000 1.000
9.020 184.000 1.000
9.040 185.000 1.000
9.060 184.000 1.000
9.080 181.000 1.000
9.100 180.000 1.000
9.120 189.000 1.000
9.140 170.000 1.000
9.160 173.000 1.000
9.180 180.000 1.000
9.200 190.000 1.000
9.220 205.000 1.000
9.240 192.000 1.000
9.260 183.000 1.000
9.280 183.000 1.000
9.300 182.000 1.000
9.320 181.000 1.000
9.340 176.000 1.000
9.360 187.000 1.000
9.380 198.000 1.000
9.400 188.000 1.000
9.420 184.000 1.000
9.440 187.000 1.000
9.460 180.000 1.000
9.480 186.000 1.000
9.500 191.000 1.000
9.520 190.000 1.000
9.540 183.000 1.000
9.560 182.000 1.000
9.580 177.000 1.000
9.600 183.000 1.000
9.620 185.000 1.000
9.640 182.000 1.000
9.660 185.000 1.000
9.680 186.000 1.000
9.700 193.000 1.000
9.720 186.000 1.000
9.740 179.000 1.000
9.760 179.000 1.000
9.780 171.000 1.000
9.800 170.000 1.000
9.820 178.000 1.000
9.840 175.000 1.000
9.860 163.000 1.000
9.880 172.000 1.000
9.900 184.000 1.000
9.920 181.000 1.000
9.940 158.000 1.000
9.960 155.000 1.000
9.980 160.000 1.000
10.000 160.000 1.000
10.020 171.000 1.000
10.040 166.000 1.000
10.060 158.000 1.000
10.080 175.000 1.000
10.100 183.000 1.000
10.120 174.000 1.000
10.140 164.000 1.000
10.160 174.000 1.000
10.180 178.000 1.000
10.200 175.000 1.000
10.220 172.000 1.000
10.240 169.000 1.000
10.260 172.000 1.000
10.280 177.000 1.000
10.300 172.000 1.000
10.320 165.000 1.000
10.340 162.000 1.000
10.360 172.000 1.000
10.380 167.000 1.000
10.400 161.000 1.000
10.420 171.000 1.000
10.440 180.000 1.000
10.460 175.000 1.000
10.480 174.000 1.000
10.500 174.000 1.000
10.520 170.000 1.000
10.540 179.000 1.000
10.560 174.000 1.000
10.580 167.000 1.000
10.600 165.000 1.000
10.620 166.000 1.000
10.640 176.000 1.000
10.660 175.000 1.000
10.680 173.000 1.000
10.700 183.000 1.000
10.720 185.000 1.000
10.740 176.000 1.000
10.760 173.000 1.000
10.780 177.000 1.000
10.800 179.000 1.000
10.820 174.000 1.000
10.840 186.000 1.000
10.860 201.000 1.000
10.880 185.000 1.000
10.900 168.000 1.000
10.920 167.000 1.000
10.940 175.000 1.000
10.960 175.000 1.000
10.980 180.000 1.000
11.000 187.000 1.000
11.020 176.000 1.000
11.040 171.000 1.000
11.060 183.000 1.000
11.080 178.000 1.000
11.100 163.000 1.000
11.120 174.000 1.000
11.140 174.000 1.000
11.160 166.000 1.000
11.180 167.000 1.000
11.200 159.000 1.000
11.220 164.000 1.000
11.240 176.000 1.000
11.260 174.000 1.000
11.280 174.000 1.000
11.300 171.000 1.000
11.320 162.000 1.000
11.340 160.000 1.000
11.360 168.000 1.000
11.380 177.000 1.000
11.400 176.000 1.000
11.420 167.000 1.000
11.440 158.000 1.000
11.460 156.000 1.000
11.480 155.000 1.000
11.500 167.000 1.000
11.520 169.000 1.000
11.540 162.000 1.000
11.560 175.000 1.000
11.580 170.000 1.000
11.600 164.000 1.000
11.620 170.000 1.000
11.640 170.000 1.000
11.660 174.000 1.000
11.680 172.000 1.000
11.700 165.000 1.000
11.720 171.000 1.000
11.740 159.000 1.000
11.760 144.000 1.000
11.780 155.000 1.000
11.800 166.000 1.000
11.820 168.000 1.000
11.840 164.000 1.000
11.860 162.000 1.000
11.880 157.000 1.000
11.900 166.000 1.000
11.920 175.000 1.000
11.940 178.000 1.000
11.960 178.000 1.000
11.980 163.000 1.000
12.000 167.000 1.000
12.020 175.000 1.000
12.040 171.000 1.000
12.060 165.000 1.000
12.080 162.000 1.000
12.100 165.000 1.000
12.120 154.000 1.000
12.140 155.000 1.000
12.160 171.000 1.000
12.180 176.000 1.000
12.200 182.000 1.000
12.220 181.000 1.000
12.240 174.000 1.000
12.260 164.000 1.000
12.280 160.000 1.000
12.300 174.000 1.000
12.320 172.000 1.000
12.340 163.000 1.000
12.360 168.000 1.000
12.380 169.000 1.000
12.400 177.000 1.000
12.420 178.000 1.000
12.440 165.000 1.000
12.460 159.000 1.000
12.480 160.000 1.000
12.500 161.000 1.000
12.520 156.000 1.000
12.540 162.000 1.000
12.560 169.000 1.000
12.580 150.000 1.000
12.600 163.000 1.000
12.620 169.000 1.000
12.640 151.000 1.000
12.660 152.000 1.000
12.680 159.000 1.000
12.700 158.000 1.000
12.720 154.000 1.000
12.740 165.000 1.000
12.760 172.000 1.000
12.780 160.000 1.000
12.800 166.000 1.000
12.820 175.000 1.000
12.840 168.000 1.000
12.860 155.000 1.000
12.880 146.000 1.000
12.900 151.000 1.000
12.920 155.000 1.000
12.940 151.000 1.000
12.960 155.000 1.000
12.980 164.000 1.000
13.000 158.000 1.000
13.020 156.000 1.000
13.040 158.000 1.000
13.060 148.000 1.000
13.080 155.000 1.000
13.100 161.000 1.000
13.120 152.000 1.000
13.140 148.000 1.000
13.160 146.000 1.000
13.180 147.000 1.000
13.200 152.000 1.000
13.220 147.000 1.000
13.240 151.000 1.000
13.260 152.000 1.000
13.280 147.000 1.000
13.300 155.000 1.000
13.320 161.000 1.000
13.340 154.000 1.000
13.360 152.000 1.000
13.380 161.000 1.000
13.400 162.000 1.000
13.420 161.000 1.000
13.440 162.000 1.000
13.460 155.000 1.000
13.480 161.000 1.000
13.500 167.000 1.000
13.520 168.000 1.000
13.540 177.000 1.000
13.560 160.000 1.000
13.580 145.000 1.000
13.600 152.000 1.000
13.620 160.000 1.000
13.640 169.000 1.000
13.660 163.000 1.000
13.680 156.000 1.000
13.700 154.000 1.000
13.720 166.000 1.000
13.740 161.000 1.000
13.760 139.000 1.000
13.780 151.000 1.000
13.800 160.000 1.000
13.820 153.000 1.000
13.840 151.000 1.000
13.860 154.000 1.000
13.880 154.000 1.000
13.900 150.000 1.000
13.920 145.000 1.000
13.940 158.000 1.000
13.960 160.000 1.000
13.980 146.000 1.000
14.000 145.000 1.000
14.020 142.000 1.000
14.040 154.000 1.000
14.060 163.000 1.000
14.080 157.000 1.000
14.100 158.000 1.000
14.120 155.000 1.000
14.140 143.000 1.000
14.160 141.000 1.000
14.180 148.000 1.000
14.200 156.000 1.000
14.220 167.000 1.000
14.240 163.000 1.000
14.260 148.000 1.000
14.280 152.000 1.000
14.300 138.000 1.000
14.320 138.000 1.000
14.340 157.000 1.000
14.360 152.000 1.000
14.380 156.000 1.000
14.400 158.000 1.000
14.420 149.000 1.000
14.440 145.000 1.000
14.460 148.000 1.000
14.480 159.000 1.000
14.500 162.000 1.000
14.520 158.000 1.000
14.540 162.000 1.000
14.560 154.000 1.000
14.580 144.000 1.000
14.600 151.000 1.000
14.620 155.000 1.000
14.640 151.000 1.000
14.660 139.000 1.000
14.680 143.000 1.000
14.700 151.000 1.000
14.720 141.000 1.000
14.740 126.000 1.000
14.760 133.000 1.000
14.780 150.000 1.000
14.800 155.000 1.000
14.820 153.000 1.000
14.840 158.000 1.000
14.860 154.000 1.000
14.880 148.000 1.000
14.900 152.000 1.000
14.920 155.000 1.000
14.940 155.000 1.000
14.960 152.000 1.000
14.980 155.000 1.000
15.000 157.000 1.000
15.020 157.000 1.000
15.040 156.000 1.000
15.060 151.000 1.000
15.080 144.000 1.000
15.100 129.000 1.000
15.120 126.000 1.000
15.140 139.000 1.000
15.160 142.000 1.000
15.180 151.000 1.000
15.200 154.000 1.000
15.220 151.000 1.000
15.240 142.000 1.000
15.260 141.000 1.000
15.280 147.000 1.000
15.300 149.000 1.000
15.320 151.000 1.000
15.340 145.000 1.000
15.360 143.000 1.000
15.380 152.000 1.000
15.400 152.000 1.000
15.420 148.000 1.000
15.440 147.000 1.000
15.460 147.000 1.000
15.480 143.000 1.000
15.500 143.000 1.000
15.520 146.000 1.000
15.540 140.000 1.000
15.560 132.000 1.000
15.580 144.000 1.000
15.600 139.000 1.000
15.620 136.000 1.000
15.640 148.000 1.000
15.660 145.000 1.000
15.680 140.000 1.000
15.700 139.000 1.000
15.720 152.000 1.000
15.740 155.000 1.000
15.760 146.000 1.000
15.780 143.000 1.000
15.800 140.000 1.000
15.820 148.000 1.000
15.840 150.000 1.000
15.860 143.000 1.000
15.880 150.000 1.000
15.900 148.000 1.000
15.920 139.000 1.000
15.940 145.000 1.000
15.960 139.000 1.000
15.980 144.000 1.000
16.000 153.000 1.000
16.020 143.000 1.000
16.040 140.000 1.000
