*RAS_DATA_START
*RAS_HEADER_START
*CORR_POS_DB_NAME "correction_file_060219"
*CORR_POS_GONIO_RADIUS ""
*CORR_POS_NODE_INDEX01 ""
*CORR_POS_NODE_INDEX02 ""
*CORR_POS_NODE_INDEX03 ""
*CORR_POS_NODE_INDEX04 ""
*CORR_POS_NODE_INDEX05 ""
*CORR_POS_NODE_INDEX06 ""
*CORR_POS_NODE_INDEX07 ""
*CORR_POS_NODE_INDEX08 ""
*CORR_POS_NODE_INDEX09 ""
*CORR_POS_NODE_INDEX10 ""
*CORR_POS_NODE_INDEX11 ""
*CORR_POS_NODE_LABEL01 "Si(111)"
*CORR_POS_NODE_LABEL02 "Si(220)"
*CORR_POS_NODE_LABEL03 "Si(311)"
*CORR_POS_NODE_LABEL04 "Si(400)"
*CORR_POS_NODE_LABEL05 "Si(331)"
*CORR_POS_NODE_LABEL06 "Si(422)"
*CORR_POS_NODE_LABEL07 "Si(511)"
*CORR_POS_NODE_LABEL08 "Si(440)"
*CORR_POS_NODE_LABEL09 "Si(531)"
*CORR_POS_NODE_LABEL10 "Si(620)"
*CORR_POS_NODE_LABEL11 "Si(533)"
*CORR_POS_NODE_POS_CALC01 "28.4137"
*CORR_POS_NODE_POS_CALC02 "47.2707"
*CORR_POS_NODE_POS_CALC03 "56.0883"
*CORR_POS_NODE_POS_CALC04 "69.0934"
*CORR_POS_NODE_POS_CALC05 "76.3385"
*CORR_POS_NODE_POS_CALC06 "87.9915"
*CORR_POS_NODE_POS_CALC07 "94.9137"
*CORR_POS_NODE_POS_CALC08 "106.67"
*CORR_POS_NODE_POS_CALC09 "114.054"
*CORR_POS_NODE_POS_CALC10 "127.508"
*CORR_POS_NODE_POS_CALC11 "136.858"
*CORR_POS_NODE_POS_MEAS01 "28.4636"
*CORR_POS_NODE_POS_MEAS02 "47.3217"
*CORR_POS_NODE_POS_MEAS03 "56.1422"
*CORR_POS_NODE_POS_MEAS04 "69.1431"
*CORR_POS_NODE_POS_MEAS05 "76.3906"
*CORR_POS_NODE_POS_MEAS06 "88.0416"
*CORR_POS_NODE_POS_MEAS07 "94.9694"
*CORR_POS_NODE_POS_MEAS08 "106.719"
*CORR_POS_NODE_POS_MEAS09 "114.106"
*CORR_POS_NODE_POS_MEAS10 "127.554"
*CORR_POS_NODE_POS_MEAS11 "136.911"
*CORR_POS_OPT_ATTR "集中法"
*CORR_POS_PARAM_MU ""
*CORR_POS_PARAM_PL ""
*CORR_POS_SEMODEL_TYPE "0"
*CORR_POS_STANDARD_TYPE ""
*CORR_POS_VALUE_ANALYZER "None"
*CORR_POS_VALUE_CMONO "None"
*CORR_POS_VALUE_IMONO "None"
*CORR_POS_VALUE_IS "0.625deg"
*CORR_POS_VALUE_ISL "10.0mm"
*CORR_POS_VALUE_ISOLLER "2.5deg"
*CORR_POS_VALUE_RS1 "13.0mm"
*CORR_POS_VALUE_RS2 "13.0mm"
*CORR_POS_VALUE_RSOLLER "2.5deg"
*CORR_POS_XG_FOCUS_L ""
*CORR_POS_XG_WAVE_TYPE ""
*CORR_POS_XG_WAVE_VALUE ""
*DISP_FMT_X "%.2f"
*DISP_FMT_Y "%.0f"
*DISP_FULLSCALE "12810.0000000000"
*DISP_LINE_COLOR "255.0000000000"
*DISP_LINE_STYLE "0.0000000000"
*DISP_LINE_WIDTH "0.2500000000"
*DISP_NOTE "Collected Data-1"
*DISP_OFFSET_Y "0.0000000000"
*DISP_PEAKSEARCH_UNIT_Y "cps"
*DISP_RANGE_BOTTOM "0.0000000000"
*DISP_RANGE_LEFT "5.0000000000"
*DISP_RANGE_LOGCUTOFF "0.0100000000"
*DISP_RANGE_RIGHT "90.0000000000"
*DISP_RANGE_TOP "12810.0000000000"
*DISP_SCALE_MODE_Y "0.0000000000"
*DISP_TAB_NAME "Theta/2-Theta"
*DISP_TITLE_Y "Intensity"
*DISP_UNIT_Y "cps"
*DISP_WINDOW_NAME "MSG_MACROENGINE"
*FILE_COMMENT " "
*FILE_MD5 ""
*FILE_MEMO " "
*FILE_OPERATOR "SDU_RIGAKU"
*FILE_SAMPLE "TiO2-2-3h-1"
*FILE_TYPE "RAS_RAW"
*FILE_USERGROUP "System User"
*FILE_VERSION "1.0000000000"
*HW_ATTACHMENT_ID "ATT1031"
*HW_ATTACHMENT_NAME "6サンプルチェンジャ|ASC-6"
*HW_COUNTER_ID-0 "CUT0025"
*HW_COUNTER_ID-1 "CUT0020"
*HW_COUNTER_ID-2 "CUT0020"
*HW_COUNTER_ID-3 "CMC0021"
*HW_COUNTER_NAME-0 "D/teX Ultra|D/teX Ultra"
*HW_COUNTER_NAME-1 "None|None"
*HW_COUNTER_NAME-2 "None|None"
*HW_COUNTER_NAME-3 "検出器モノクロメータ|Detector monochromator"
*HW_COUNTER_SELECT_NAME "D/teX Ultra|D/teX Ultra"
*HW_GONIOMETER_ID "GON0070"
*HW_GONIOMETER_NAME "MiniFlex 300/600|MiniFlex 300/600"
*HW_GONIOMETER_RADIUS-0 "79.0"
*HW_GONIOMETER_RADIUS-1 "91.5"
*HW_GONIOMETER_RADIUS-2 "150.0"
*HW_GONIOMETER_RADIUS-3 "0"
*HW_GONIOMETER_RADIUS-4 "103.4"
*HW_GONIOMETER_RADIUS-5 "150.0"
*HW_GONIOMETER_RADIUS-6 "46.6"
*HW_GONIOMETER_RADIUS-7 "160.0"
*HW_I_OPT_ID-0 "ISL0021"
*HW_I_OPT_ID-1 "ISO0021"
*HW_I_OPT_NAME-0 "発散スリット|Divergence slit"
*HW_I_OPT_NAME-1 "入射平行スリット|Incident parallel slit"
*HW_R_ATTENUATER_AUTOMODE "0"
*HW_R_OPT_ID-0 "RSS0021"
*HW_R_OPT_ID-1 "RSO0021"
*HW_R_OPT_ID-2 "RRS0021"
*HW_R_OPT_NAME-0 "散乱スリット|Scattering slit"
*HW_R_OPT_NAME-1 "受光平行スリット|Receiving soller slit"
*HW_R_OPT_NAME-2 "受光スリット|Receiving slit"
*HW_SAMPLE_HOLDER_ID "SMP0000"
*HW_SAMPLE_HOLDER_NAME "無し|None"
*HW_XG_CURRENT_MAX "15"
*HW_XG_CURRENT_MIN "2"
*HW_XG_CURRENT_RESOLUTION "1"
*HW_XG_CURRENT_UNIT "mA"
*HW_XG_FOCUS "1mm x 10mm"
*HW_XG_FOCUS_TYPE "Normal"
*HW_XG_ID ""
*HW_XG_NAME "300W/600W 封入管-B|300W/600W Sealed tube-B"
*HW_XG_TARGET_ATOMIC_NUMBER "29.0000000000"
*HW_XG_TARGET_NAME "Cu"
*HW_XG_TYPE "Hermetic"
*HW_XG_VOLTAGE_MAX "40"
*HW_XG_VOLTAGE_MIN "20"
*HW_XG_VOLTAGE_RESOLUTION "1"
*HW_XG_VOLTAGE_UNIT "kV"
*HW_XG_WATT_MAX "1"
*HW_XG_WATT_UNIT "kW"
*HW_XG_WAVE_LENGTH_ALPHA1 "1.540593"
*HW_XG_WAVE_LENGTH_ALPHA2 "1.544414"
*HW_XG_WAVE_LENGTH_BETA "1.392250"
*MEAS_COND_AXIS_NAME-0 "Theta/2-Theta"
*MEAS_COND_AXIS_NAME-1 "Spin"
*MEAS_COND_AXIS_NAME-2 "Change"
*MEAS_COND_AXIS_NAME-3 "Soller(inc.)"
*MEAS_COND_AXIS_NAME-4 "IHS"
*MEAS_COND_AXIS_NAME-5 "DS"
*MEAS_COND_AXIS_NAME-6 "SS"
*MEAS_COND_AXIS_NAME-7 "Soller(rec.)"
*MEAS_COND_AXIS_NAME-8 "RS"
*MEAS_COND_AXIS_NAME-9 "Filter"
*MEAS_COND_AXIS_NAME-10 "Monochromator"
*MEAS_COND_AXIS_NAME-11 "PHA"
*MEAS_COND_AXIS_NAME_INTERNAL-0 "TwoThetaTheta"
*MEAS_COND_AXIS_NAME_INTERNAL-1 "Spin"
*MEAS_COND_AXIS_NAME_INTERNAL-2 "Change"
*MEAS_COND_AXIS_NAME_INTERNAL-3 "IncidentSollerSlit"
*MEAS_COND_AXIS_NAME_INTERNAL-4 "IncidentAxdSlit"
*MEAS_COND_AXIS_NAME_INTERNAL-5 "IncidentSlitBox"
*MEAS_COND_AXIS_NAME_INTERNAL-6 "ReceivingSlitBox1"
*MEAS_COND_AXIS_NAME_INTERNAL-7 "ReceivingSollerSlit"
*MEAS_COND_AXIS_NAME_INTERNAL-8 "ReceivingSlitBox2"
*MEAS_COND_AXIS_NAME_INTERNAL-9 "Filter"
*MEAS_COND_AXIS_NAME_INTERNAL-10 "CounterMonochromator"
*MEAS_COND_AXIS_NAME_INTERNAL-11 "PHA"
*MEAS_COND_AXIS_NAME_MAGICNO-0 "268632064.0000000000"
*MEAS_COND_AXIS_NAME_MAGICNO-1 "16842752.0000000000"
*MEAS_COND_AXIS_NAME_MAGICNO-2 "16842752.0000000000"
*MEAS_COND_AXIS_NAME_MAGICNO-3 "20971521.0000000000"
*MEAS_COND_AXIS_NAME_MAGICNO-4 "22020097.0000000000"
*MEAS_COND_AXIS_NAME_MAGICNO-5 "22020097.0000000000"
*MEAS_COND_AXIS_NAME_MAGICNO-6 "23068673.0000000000"
*MEAS_COND_AXIS_NAME_MAGICNO-7 "20971521.0000000000"
*MEAS_COND_AXIS_NAME_MAGICNO-8 "23068673.0000000000"
*MEAS_COND_AXIS_NAME_MAGICNO-9 "20971521.0000000000"
*MEAS_COND_AXIS_NAME_MAGICNO-10 "20971521.0000000000"
*MEAS_COND_AXIS_NAME_MAGICNO-11 "0.0000000000"
*MEAS_COND_AXIS_OFFSET-0 "0.0000000000"
*MEAS_COND_AXIS_OFFSET-1 "-"
*MEAS_COND_AXIS_OFFSET-2 "-"
*MEAS_COND_AXIS_OFFSET-3 "-"
*MEAS_COND_AXIS_OFFSET-4 "-"
*MEAS_COND_AXIS_OFFSET-5 "-"
*MEAS_COND_AXIS_OFFSET-6 "-"
*MEAS_COND_AXIS_OFFSET-7 "-"
*MEAS_COND_AXIS_OFFSET-8 "-"
*MEAS_COND_AXIS_OFFSET-9 "-"
*MEAS_COND_AXIS_OFFSET-10 "-"
*MEAS_COND_AXIS_OFFSET-11 "-"
*MEAS_COND_AXIS_POSITION-0 "10.0000000000"
*MEAS_COND_AXIS_POSITION-1 "0.0000000000"
*MEAS_COND_AXIS_POSITION-2 "2.0000000000"
*MEAS_COND_AXIS_POSITION-3 "2.5deg"
*MEAS_COND_AXIS_POSITION-4 "10.0mm"
*MEAS_COND_AXIS_POSITION-5 "0.625deg"
*MEAS_COND_AXIS_POSITION-6 "13.0mm"
*MEAS_COND_AXIS_POSITION-7 "2.5deg"
*MEAS_COND_AXIS_POSITION-8 "13.0mm"
*MEAS_COND_AXIS_POSITION-9 "K-beta(x1)"
*MEAS_COND_AXIS_POSITION-10 "None"
*MEAS_COND_AXIS_POSITION-11 "42.0000000000"
*MEAS_COND_AXIS_UNIT-0 "deg"
*MEAS_COND_AXIS_UNIT-1 ""
*MEAS_COND_AXIS_UNIT-2 ""
*MEAS_COND_AXIS_UNIT-3 ""
*MEAS_COND_AXIS_UNIT-4 ""
*MEAS_COND_AXIS_UNIT-5 ""
*MEAS_COND_AXIS_UNIT-6 ""
*MEAS_COND_AXIS_UNIT-7 ""
*MEAS_COND_AXIS_UNIT-8 ""
*MEAS_COND_AXIS_UNIT-9 ""
*MEAS_COND_AXIS_UNIT-10 ""
*MEAS_COND_AXIS_UNIT-11 "div"
*MEAS_COND_CORRECTION_SLIT_COUNTERMONO "None"
*MEAS_COND_CORRECTION_SLIT_DS "0.625deg"
*MEAS_COND_CORRECTION_SLIT_FILTER "None"
*MEAS_COND_CORRECTION_SLIT_IHS "10.0mm"
*MEAS_COND_CORRECTION_SLIT_RS "13.0mm"
*MEAS_COND_CORRECTION_SLIT_SOLLER_INC "2.5deg"
*MEAS_COND_CORRECTION_SLIT_SOLLER_REC "2.5deg"
*MEAS_COND_CORRECTION_SLIT_SS "13.0mm"
*MEAS_COND_COUNTER_CNTLOSS_CORR "0.0000000000"
*MEAS_COND_COUNTER_PHABASE "42.0000000000"
*MEAS_COND_COUNTER_PHAWINDOW "15.0000000000"
*MEAS_COND_COUNTER_PHA_UNIT "div"
*MEAS_COND_COUNTER_TAUDIFF "0.2500000000"
*MEAS_COND_COUNTER_TAUINT "0.7500000000"
*MEAS_COND_IRRADIATION_MODE "OFF"
*MEAS_COND_IRRADIATION_WIDTH ""
*MEAS_COND_OPT_ATTR " "
*MEAS_COND_OPT_NAME ""
*MEAS_COND_UNSYMMETRIC_MODE "OFF"
*MEAS_COND_XG_CURRENT "15.0000000000"
*MEAS_COND_XG_VOLTAGE "40.0000000000"
*MEAS_COND_XG_WAVE_TYPE "Ka"
*MEAS_DATA_COUNT "4251.0000000000"
*MEAS_SCAN_AXIS_X "Theta/2-Theta"
*MEAS_SCAN_AXIS_X_INTERNAL "TwoThetaTheta"
*MEAS_SCAN_END_TIME "03/04/19 15:24:39"
*MEAS_SCAN_MODE "CONTINUOUS"
*MEAS_SCAN_MONITOR "0"
*MEAS_SCAN_RESOLUTION_X "0.005"
*MEAS_SCAN_SPEED "10.000"
*MEAS_SCAN_SPEED_UNIT "deg/min"
*MEAS_SCAN_START "5.0000000000"
*MEAS_SCAN_START_TIME "03/04/19 15:15:23"
*MEAS_SCAN_STEP "0.0200000000"
*MEAS_SCAN_STOP "90.0000000000"
*MEAS_SCAN_UNIT_X "deg"
*MEAS_SCAN_UNIT_Y "counts"
*SLIT_SYSTEM "0"
*RAS_HEADER_END
*RAS_INT_START
5.000 543.000 1.000
5.020 551.000 1.000
5.040 519.000 1.000
5.060 478.000 1.000
5.080 500.000 1.000
5.100 500.000 1.000
5.120 507.000 1.000
5.140 516.000 1.000
5.160 467.000 1.000
5.180 467.000 1.000
5.200 488.000 1.000
5.220 487.000 1.000
5.240 478.000 1.000
5.260 462.000 1.000
5.280 467.000 1.000
5.300 499.000 1.000
5.320 474.000 1.000
5.340 465.000 1.000
5.360 430.000 1.000
5.380 437.000 1.000
5.400 431.000 1.000
5.420 457.000 1.000
5.440 453.000 1.000
5.460 458.000 1.000
5.480 436.000 1.000
5.500 421.000 1.000
5.520 428.000 1.000
5.540 425.000 1.000
5.560 425.000 1.000
5.580 423.000 1.000
5.600 407.000 1.000
5.620 385.000 1.000
5.640 396.000 1.000
5.660 388.000 1.000
5.680 383.000 1.000
5.700 377.000 1.000
5.720 357.000 1.000
5.740 379.000 1.000
5.760 368.000 1.000
5.780 363.000 1.000
5.800 364.000 1.000
5.820 345.000 1.000
5.840 355.000 1.000
5.860 360.000 1.000
5.880 370.000 1.000
5.900 380.000 1.000
5.920 353.000 1.000
5.940 329.000 1.000
5.960 345.000 1.000
5.980 348.000 1.000
6.000 322.000 1.000
6.020 352.000 1.000
6.040 329.000 1.000
6.060 337.000 1.000
6.080 349.000 1.000
6.100 315.000 1.000
6.120 311.000 1.000
6.140 332.000 1.000
6.160 337.000 1.000
6.180 329.000 1.000
6.200 324.000 1.000
6.220 327.000 1.000
6.240 313.000 1.000
6.260 313.000 1.000
6.280 323.000 1.000
6.300 295.000 1.000
6.320 301.000 1.000
6.340 326.000 1.000
6.360 332.000 1.000
6.380 315.000 1.000
6.400 302.000 1.000
6.420 305.000 1.000
6.440 291.000 1.000
6.460 302.000 1.000
6.480 293.000 1.000
6.500 282.000 1.000
6.520 292.000 1.000
6.540 277.000 1.000
6.560 262.000 1.000
6.580 287.000 1.000
6.600 283.000 1.000
6.620 286.000 1.000
6.640 264.000 1.000
6.660 259.000 1.000
6.680 274.000 1.000
6.700 276.000 1.000
6.720 274.000 1.000
6.740 255.000 1.000
6.760 242.000 1.000
6.780 273.000 1.000
6.800 280.000 1.000
6.820 242.000 1.000
6.840 243.000 1.000
6.860 255.000 1.000
6.880 262.000 1.000
6.900 282.000 1.000
6.920 269.000 1.000
6.940 256.000 1.000
6.960 255.000 1.000
6.980 253.000 1.000
7.000 227.000 1.000
7.020 235.000 1.000
7.040 240.000 1.000
7.060 226.000 1.000
7.080 223.000 1.000
7.100 234.000 1.000
7.120 227.000 1.000
7.140 241.000 1.000
7.160 217.000 1.000
7.180 221.000 1.000
7.200 232.000 1.000
7.220 233.000 1.000
7.240 244.000 1.000
7.260 230.000 1.000
7.280 231.000 1.000
7.300 246.000 1.000
7.320 227.000 1.000
7.340 205.000 1.000
7.360 222.000 1.000
7.380 240.000 1.000
7.400 240.000 1.000
7.420 232.000 1.000
7.440 237.000 1.000
7.460 234.000 1.000
7.480 250.000 1.000
7.500 247.000 1.000
7.520 222.000 1.000
7.540 208.000 1.000
7.560 216.000 1.000
7.580 227.000 1.000
7.600 231.000 1.000
7.620 207.000 1.000
7.640 199.000 1.000
7.660 202.000 1.000
7.680 220.000 1.000
7.700 237.000 1.000
7.720 226.000 1.000
7.740 210.000 1.000
7.760 217.000 1.000
7.780 203.000 1.000
7.800 201.000 1.000
7.820 215.000 1.000
7.840 212.000 1.000
7.860 208.000 1.000
7.880 210.000 1.000
7.900 213.000 1.000
7.920 204.000 1.000
7.940 195.000 1.000
7.960 184.000 1.000
7.980 190.000 1.000
8.000 180.000 1.000
8.020 197.000 1.000
8.040 217.000 1.000
8.060 211.000 1.000
8.080 208.000 1.000
8.100 220.000 1.000
8.120 208.000 1.000
8.140 217.000 1.000
8.160 215.000 1.000
8.180 191.000 1.000
8.200 195.000 1.000
8.220 213.000 1.000
8.240 213.000 1.000
8.260 192.000 1.000
8.280 199.000 1.000
8.300 198.000 1.000
8.320 193.000 1.000
8.340 196.000 1.000
8.360 190.000 1.000
8.380 193.000 1.000
8.400 199.000 1.000
8.420 193.000 1.000
8.440 195.000 1.000
8.460 204.000 1.000
8.480 213.000 1.000
8.500 204.000 1.000
8.520 193.000 1.000
8.540 197.000 1.000
8.560 207.000 1.000
8.580 201.000 1.000
8.600 198.000 1.000
8.620 210.000 1.000
8.640 197.000 1.000
8.660 188.000 1.000
8.680 201.000 1.000
8.700 199.000 1.000
8.720 204.000 1.000
8.740 191.000 1.000
8.760 170.000 1.000
8.780 178.000 1.000
8.800 175.000 1.000
8.820 176.000 1.000
8.840 171.000 1.000
8.860 168.000 1.000
8.880 165.000 1.000
8.900 177.000 1.000
8.920 198.000 1.000
8.940 195.000 1.000
8.960 182.000 1.000
8.980 189.000 1.000
9.000 180.000 1.000
9.020 165.000 1.000
9.040 171.000 1.000
9.060 187.000 1.000
9.080 187.000 1.000
9.100 179.000 1.000
9.120 181.000 1.000
9.140 178.000 1.000
9.160 176.000 1.000
9.180 198.000 1.000
9.200 212.000 1.000
9.220 202.000 1.000
9.240 187.000 1.000
9.260 187.000 1.000
9.280 177.000 1.000
9.300 188.000 1.000
9.320 183.000 1.000
9.340 182.000 1.000
9.360 193.000 1.000
9.380 184.000 1.000
9.400 190.000 1.000
9.420 180.000 1.000
9.440 170.000 1.000
9.460 184.000 1.000
9.480 188.000 1.000
9.500 192.000 1.000
9.520 183.000 1.000
9.540 163.000 1.000
9.560 161.000 1.000
9.580 175.000 1.000
9.600 182.000 1.000
9.620 186.000 1.000
9.640 182.000 1.000
9.660 168.000 1.000
9.680 170.000 1.000
9.700 185.000 1.000
9.720 193.000 1.000
9.740 195.000 1.000
9.760 186.000 1.000
9.780 183.000 1.000
9.800 174.000 1.000
9.820 174.000 1.000
9.840 184.000 1.000
9.860 174.000 1.000
9.880 166.000 1.000
9.900 164.000 1.000
9.920 170.000 1.000
9.940 172.000 1.000
9.960 176.000 1.000
9.980 175.000 1.000
10.000 164.000 1.000
10.020 158.000 1.000
10.040 166.000 1.000
10.060 171.000 1.000
10.080 162.000 1.000
10.100 165.000 1.000
10.120 169.000 1.000
10.140 168.000 1.000
10.160 174.000 1.000
10.180 163.000 1.000
10.200 183.000 1.000
10.220 190.000 1.000
10.240 181.000 1.000
10.260 184.000 1.000
10.280 178.000 1.000
10.300 172.000 1.000
10.320 170.000 1.000
10.340 163.000 1.000
10.360 178.000 1.000
10.380 180.000 1.000
10.400 169.000 1.000
10.420 171.000 1.000
10.440 157.000 1.000
10.460 161.000 1.000
10.480 176.000 1.000
10.500 166.000 1.000
10.520 166.000 1.000
10.540 177.000 1.000
10.560 172.000 1.000
10.580 171.000 1.000
10.600 169.000 1.000
10.620 172.000 1.000
10.640 175.000 1.000
10.660 176.000 1.000
10.680 184.000 1.000
10.700 180.000 1.000
10.720 169.000 1.000
10.740 174.000 1.000
10.760 189.000 1.000
10.780 181.000 1.000
10.800 166.000 1.000
10.820 156.000 1.000
10.840 159.000 1.000
10.860 164.000 1.000
10.880 158.000 1.000
10.900 157.000 1.000
10.920 161.000 1.000
10.940 169.000 1.000
10.960 168.000 1.000
10.980 147.000 1.000
11.000 147.000 1.000
11.020 170.000 1.000
11.040 176.000 1.000
11.060 174.000 1.000
11.080 178.000 1.000
11.100 180.000 1.000
11.120 182.000 1.000
11.140 178.000 1.000
11.160 169.000 1.000
11.180 164.000 1.000
11.200 156.000 1.000
11.220 172.000 1.000
11.240 189.000 1.000
11.260 178.000 1.000
11.280 164.000 1.000
11.300 170.000 1.000
11.320 166.000 1.000
11.340 160.000 1.000
11.360 164.000 1.000
11.380 171.000 1.000
11.400 173.000 1.000
11.420 167.000 1.000
11.440 162.000 1.000
11.460 169.000 1.000
11.480 185.000 1.000
11.500 180.000 1.000
11.520 166.000 1.000
11.540 164.000 1.000
11.560 166.000 1.000
11.580 157.000 1.000
11.600 147.000 1.000
11.620 133.000 1.000
11.640 136.000 1.000
11.660 162.000 1.000
11.680 165.000 1.000
11.700 154.000 1.000
11.720 158.000 1.000
11.740 158.000 1.000
11.760 158.000 1.000
11.780 160.000 1.000
11.800 159.000 1.000
11.820 160.000 1.000
11.840 157.000 1.000
11.860 165.000 1.000
11.880 164.000 1.000
11.900 166.000 1.000
11.920 168.000 1.000
11.940 164.000 1.000
11.960 173.000 1.000
11.980 159.000 1.000
12.000 158.000 1.000
12.020 166.000 1.000
12.040 163.000 1.000
12.060 161.000 1.000
12.080 155.000 1.000
12.100 151.000 1.000
12.120 152.000 1.000
12.140 154.000 1.000
12.160 159.000 1.000
12.180 160.000 1.000
12.200 154.000 1.000
12.220 152.000 1.000
12.240 148.000 1.000
12.260 149.000 1.000
12.280 148.000 1.000
12.300 159.000 1.000
12.320 162.000 1.000
12.340 156.000 1.000
12.360 166.000 1.000
12.380 173.000 1.000
12.400 171.000 1.000
12.420 168.000 1.000
12.440 165.000 1.000
12.460 165.000 1.000
12.480 167.000 1.000
12.500 161.000 1.000
12.520 154.000 1.000
12.540 145.000 1.000
12.560 143.000 1.000
12.580 146.000 1.000
12.600 145.000 1.000
12.620 152.000 1.000
12.640 161.000 1.000
12.660 163.000 1.000
12.680 148.000 1.000
12.700 143.000 1.000
12.720 150.000 1.000
12.740 145.000 1.000
12.760 146.000 1.000
12.780 153.000 1.000
12.800 156.000 1.000
12.820 160.000 1.000
12.840 157.000 1.000
12.860 157.000 1.000
12.880 147.000 1.000
12.900 141.000 1.000
12.920 154.000 1.000
12.940 158.000 1.000
12.960 166.000 1.000
12.980 169.000 1.000
13.000 166.000 1.000
13.020 166.000 1.000
13.040 162.000 1.000
13.060 171.000 1.000
13.080 171.000 1.000
13.100 164.000 1.000
13.120 151.000 1.000
13.140 147.000 1.000
13.160 166.000 1.000
13.180 171.000 1.000
13.200 158.000 1.000
13.220 166.000 1.000
13.240 165.000 1.000
13.260 152.000 1.000
13.280 153.000 1.000
13.300 163.000 1.000
13.320 169.000 1.000
13.340 164.000 1.000
13.360 167.000 1.000
13.380 175.000 1.000
13.400 168.000 1.000
13.420 170.000 1.000
13.440 173.000 1.000
13.460 161.000 1.000
13.480 159.000 1.000
13.500 161.000 1.000
13.520 164.000 1.000
13.540 169.000 1.000
13.560 163.000 1.000
13.580 158.000 1.000
13.600 164.000 1.000
13.620 170.000 1.000
13.640 163.000 1.000
13.660 170.000 1.000
13.680 164.000 1.000
13.700 162.000 1.000
13.720 165.000 1.000
13.740 172.000 1.000
13.760 180.000 1.000
13.780 172.000 1.000
13.800 175.000 1.000
13.820 165.000 1.000
13.840 164.000 1.000
13.860 173.000 1.000
13.880 179.000 1.000
13.900 186.000 1.000
13.920 184.000 1.000
13.940 185.000 1.000
13.960 187.000 1.000
13.980 186.000 1.000
14.000 192.000 1.000
14.020 195.000 1.000
14.040 185.000 1.000
14.060 172.000 1.000
14.080 168.000 1.000
14.100 169.000 1.000
14.120 170.000 1.000
14.140 172.000 1.000
14.160 187.000 1.000
14.180 196.000 1.000
14.200 201.000 1.000
14.220 198.000 1.000
14.240 187.000 1.000
14.260 191.000 1.000
14.280 191.000 1.000
14.300 182.000 1.000
14.320 179.000 1.000
14.340 196.000 1.000
14.360 202.000 1.000
14.380 194.000 1.000
14.400 190.000 1.000
14.420 200.000 1.000
14.440 201.000 1.000
14.460 196.000 1.000
14.480 199.000 1.000
14.500 200.000 1.000
14.520 192.000 1.000
14.540 187.000 1.000
14.560 185.000 1.000
14.580 193.000 1.000
14.600 192.000 1.000
14.620 172.000 1.000
14.640 176.000 1.000
14.660 184.000 1.000
14.680 183.000 1.000
14.700 192.000 1.000
14.720 192.000 1.000
14.740 190.000 1.000
14.760 188.000 1.000
14.780 182.000 1.000
14.800 196.000 1.000
14.820 205.000 1.000
14.840 182.000 1.000
14.860 174.000 1.000
14.880 177.000 1.000
14.900 171.000 1.000
14.920 170.000 1.000
14.940 167.000 1.000
14.960 169.000 1.000
14.980 178.000 1.000
15.000 179.000 1.000
15.020 182.000 1.000
15.040 177.000 1.000
15.060 169.000 1.000
15.080 169.000 1.000
15.100 164.000 1.000
15.120 178.000 1.000
15.140 180.000 1.000
15.160 165.000 1.000
15.180 174.000 1.000
15.200 183.000 1.000
15.220 169.000 1.000
15.240 160.000 1.000
15.260 167.000 1.000
15.280 167.000 1.000
15.300 170.000 1.000
15.320 175.000 1.000
15.340 173.000 1.000
15.360 162.000 1.000
15.380 162.000 1.000
15.400 173.000 1.000
15.420 169.000 1.000
15.440 157.000 1.000
15.460 147.000 1.000
15.480 156.000 1.000
15.500 165.000 1.000
15.520 160.000 1.000
15.540 164.000 1.000
15.560 169.000 1.000
15.580 166.000 1.000
15.600 162.000 1.000
15.620 164.000 1.000
15.640 163.000 1.000
15.660 151.000 1.000
15.680 147.000 1.000
15.700 157.000 1.000
15.720 155.000 1.000
15.740 157.000 1.000
15.760 161.000 1.000
15.780 154.000 1.000
15.800 162.000 1.000
15.820 163.000 1.000
15.840 155.000 1.000
15.860 147.000 1.000
15.880 141.000 1.000
15.900 155.000 1.000
15.920 171.000 1.000
15.940 171.000 1.000
15.960 159.000 1.000
15.980 145.000 1.000
16.000 147.000 1.000
16.020 157.000 1.000
16.040 153.000 1.000
