*RAS_DATA_START
*RAS_HEADER_START
*CORR_POS_DB_NAME "correction_file_060219"
*CORR_POS_GONIO_RADIUS ""
*CORR_POS_NODE_INDEX01 ""
*CORR_POS_NODE_INDEX02 ""
*CORR_POS_NODE_INDEX03 ""
*CORR_POS_NODE_INDEX04 ""
*CORR_POS_NODE_INDEX05 ""
*CORR_POS_NODE_INDEX06 ""
*CORR_POS_NODE_INDEX07 ""
*CORR_POS_NODE_INDEX08 ""
*CORR_POS_NODE_INDEX09 ""
*CORR_POS_NODE_INDEX10 ""
*CORR_POS_NODE_INDEX11 ""
*CORR_POS_NODE_LABEL01 "Si(111)"
*CORR_POS_NODE_LABEL02 "Si(220)"
*CORR_POS_NODE_LABEL03 "Si(311)"
*CORR_POS_NODE_LABEL04 "Si(400)"
*CORR_POS_NODE_LABEL05 "Si(331)"
*CORR_POS_NODE_LABEL06 "Si(422)"
*CORR_POS_NODE_LABEL07 "Si(511)"
*CORR_POS_NODE_LABEL08 "Si(440)"
*CORR_POS_NODE_LABEL09 "Si(531)"
*CORR_POS_NODE_LABEL10 "Si(620)"
*CORR_POS_NODE_LABEL11 "Si(533)"
*CORR_POS_NODE_POS_CALC01 "28.4137"
*CORR_POS_NODE_POS_CALC02 "47.2707"
*CORR_POS_NODE_POS_CALC03 "56.0883"
*CORR_POS_NODE_POS_CALC04 "69.0934"
*CORR_POS_NODE_POS_CALC05 "76.3385"
*CORR_POS_NODE_POS_CALC06 "87.9915"
*CORR_POS_NODE_POS_CALC07 "94.9137"
*CORR_POS_NODE_POS_CALC08 "106.67"
*CORR_POS_NODE_POS_CALC09 "114.054"
*CORR_POS_NODE_POS_CALC10 "127.508"
*CORR_POS_NODE_POS_CALC11 "136.858"
*CORR_POS_NODE_POS_MEAS01 "28.4636"
*CORR_POS_NODE_POS_MEAS02 "47.3217"
*CORR_POS_NODE_POS_MEAS03 "56.1422"
*CORR_POS_NODE_POS_MEAS04 "69.1431"
*CORR_POS_NODE_POS_MEAS05 "76.3906"
*CORR_POS_NODE_POS_MEAS06 "88.0416"
*CORR_POS_NODE_POS_MEAS07 "94.9694"
*CORR_POS_NODE_POS_MEAS08 "106.719"
*CORR_POS_NODE_POS_MEAS09 "114.106"
*CORR_POS_NODE_POS_MEAS10 "127.554"
*CORR_POS_NODE_POS_MEAS11 "136.911"
*CORR_POS_OPT_ATTR "集中法"
*CORR_POS_PARAM_MU ""
*CORR_POS_PARAM_PL ""
*CORR_POS_SEMODEL_TYPE "0"
*CORR_POS_STANDARD_TYPE ""
*CORR_POS_VALUE_ANALYZER "None"
*CORR_POS_VALUE_CMONO "None"
*CORR_POS_VALUE_IMONO "None"
*CORR_POS_VALUE_IS "0.625deg"
*CORR_POS_VALUE_ISL "10.0mm"
*CORR_POS_VALUE_ISOLLER "2.5deg"
*CORR_POS_VALUE_RS1 "13.0mm"
*CORR_POS_VALUE_RS2 "13.0mm"
*CORR_POS_VALUE_RSOLLER "2.5deg"
*CORR_POS_XG_FOCUS_L ""
*CORR_POS_XG_WAVE_TYPE ""
*CORR_POS_XG_WAVE_VALUE ""
*DISP_FMT_X "%.2f"
*DISP_FMT_Y "%.0f"
*DISP_FULLSCALE "15830.0000000000"
*DISP_LINE_COLOR "255.0000000000"
*DISP_LINE_STYLE "0.0000000000"
*DISP_LINE_WIDTH "0.2500000000"
*DISP_NOTE "Collected Data-3"
*DISP_OFFSET_Y "0.0000000000"
*DISP_PEAKSEARCH_UNIT_Y "cps"
*DISP_RANGE_BOTTOM "0.0000000000"
*DISP_RANGE_LEFT "5.0000000000"
*DISP_RANGE_LOGCUTOFF "0.0100000000"
*DISP_RANGE_RIGHT "90.0000000000"
*DISP_RANGE_TOP "15830.0000000000"
*DISP_SCALE_MODE_Y "0.0000000000"
*DISP_TAB_NAME "Theta/2-Theta"
*DISP_TITLE_Y "Intensity"
*DISP_UNIT_Y "cps"
*DISP_WINDOW_NAME "MSG_MACROENGINE"
*FILE_COMMENT " "
*FILE_MD5 ""
*FILE_MEMO " "
*FILE_OPERATOR "SDU_RIGAKU"
*FILE_SAMPLE "TiO2-3-3h-2"
*FILE_TYPE "RAS_RAW"
*FILE_USERGROUP "System User"
*FILE_VERSION "1.0000000000"
*HW_ATTACHMENT_ID "ATT1031"
*HW_ATTACHMENT_NAME "6サンプルチェンジャ|ASC-6"
*HW_COUNTER_ID-0 "CUT0025"
*HW_COUNTER_ID-1 "CUT0020"
*HW_COUNTER_ID-2 "CUT0020"
*HW_COUNTER_ID-3 "CMC0021"
*HW_COUNTER_NAME-0 "D/teX Ultra|D/teX Ultra"
*HW_COUNTER_NAME-1 "None|None"
*HW_COUNTER_NAME-2 "None|None"
*HW_COUNTER_NAME-3 "検出器モノクロメータ|Detector monochromator"
*HW_COUNTER_SELECT_NAME "D/teX Ultra|D/teX Ultra"
*HW_GONIOMETER_ID "GON0070"
*HW_GONIOMETER_NAME "MiniFlex 300/600|MiniFlex 300/600"
*HW_GONIOMETER_RADIUS-0 "79.0"
*HW_GONIOMETER_RADIUS-1 "91.5"
*HW_GONIOMETER_RADIUS-2 "150.0"
*HW_GONIOMETER_RADIUS-3 "0"
*HW_GONIOMETER_RADIUS-4 "103.4"
*HW_GONIOMETER_RADIUS-5 "150.0"
*HW_GONIOMETER_RADIUS-6 "46.6"
*HW_GONIOMETER_RADIUS-7 "160.0"
*HW_I_OPT_ID-0 "ISL0021"
*HW_I_OPT_ID-1 "ISO0021"
*HW_I_OPT_NAME-0 "発散スリット|Divergence slit"
*HW_I_OPT_NAME-1 "入射平行スリット|Incident parallel slit"
*HW_R_ATTENUATER_AUTOMODE "0"
*HW_R_OPT_ID-0 "RSS0021"
*HW_R_OPT_ID-1 "RSO0021"
*HW_R_OPT_ID-2 "RRS0021"
*HW_R_OPT_NAME-0 "散乱スリット|Scattering slit"
*HW_R_OPT_NAME-1 "受光平行スリット|Receiving soller slit"
*HW_R_OPT_NAME-2 "受光スリット|Receiving slit"
*HW_SAMPLE_HOLDER_ID "SMP0000"
*HW_SAMPLE_HOLDER_NAME "無し|None"
*HW_XG_CURRENT_MAX "15"
*HW_XG_CURRENT_MIN "2"
*HW_XG_CURRENT_RESOLUTION "1"
*HW_XG_CURRENT_UNIT "mA"
*HW_XG_FOCUS "1mm x 10mm"
*HW_XG_FOCUS_TYPE "Normal"
*HW_XG_ID ""
*HW_XG_NAME "300W/600W 封入管-B|300W/600W Sealed tube-B"
*HW_XG_TARGET_ATOMIC_NUMBER "29.0000000000"
*HW_XG_TARGET_NAME "Cu"
*HW_XG_TYPE "Hermetic"
*HW_XG_VOLTAGE_MAX "40"
*HW_XG_VOLTAGE_MIN "20"
*HW_XG_VOLTAGE_RESOLUTION "1"
*HW_XG_VOLTAGE_UNIT "kV"
*HW_XG_WATT_MAX "1"
*HW_XG_WATT_UNIT "kW"
*HW_XG_WAVE_LENGTH_ALPHA1 "1.540593"
*HW_XG_WAVE_LENGTH_ALPHA2 "1.544414"
*HW_XG_WAVE_LENGTH_BETA "1.392250"
*MEAS_COND_AXIS_NAME-0 "Theta/2-Theta"
*MEAS_COND_AXIS_NAME-1 "Spin"
*MEAS_COND_AXIS_NAME-2 "Change"
*MEAS_COND_AXIS_NAME-3 "Soller(inc.)"
*MEAS_COND_AXIS_NAME-4 "IHS"
*MEAS_COND_AXIS_NAME-5 "DS"
*MEAS_COND_AXIS_NAME-6 "SS"
*MEAS_COND_AXIS_NAME-7 "Soller(rec.)"
*MEAS_COND_AXIS_NAME-8 "RS"
*MEAS_COND_AXIS_NAME-9 "Filter"
*MEAS_COND_AXIS_NAME-10 "Monochromator"
*MEAS_COND_AXIS_NAME-11 "PHA"
*MEAS_COND_AXIS_NAME_INTERNAL-0 "TwoThetaTheta"
*MEAS_COND_AXIS_NAME_INTERNAL-1 "Spin"
*MEAS_COND_AXIS_NAME_INTERNAL-2 "Change"
*MEAS_COND_AXIS_NAME_INTERNAL-3 "IncidentSollerSlit"
*MEAS_COND_AXIS_NAME_INTERNAL-4 "IncidentAxdSlit"
*MEAS_COND_AXIS_NAME_INTERNAL-5 "IncidentSlitBox"
*MEAS_COND_AXIS_NAME_INTERNAL-6 "ReceivingSlitBox1"
*MEAS_COND_AXIS_NAME_INTERNAL-7 "ReceivingSollerSlit"
*MEAS_COND_AXIS_NAME_INTERNAL-8 "ReceivingSlitBox2"
*MEAS_COND_AXIS_NAME_INTERNAL-9 "Filter"
*MEAS_COND_AXIS_NAME_INTERNAL-10 "CounterMonochromator"
*MEAS_COND_AXIS_NAME_INTERNAL-11 "PHA"
*MEAS_COND_AXIS_NAME_MAGICNO-0 "268632064.0000000000"
*MEAS_COND_AXIS_NAME_MAGICNO-1 "16842752.0000000000"
*MEAS_COND_AXIS_NAME_MAGICNO-2 "16842752.0000000000"
*MEAS_COND_AXIS_NAME_MAGICNO-3 "20971521.0000000000"
*MEAS_COND_AXIS_NAME_MAGICNO-4 "22020097.0000000000"
*MEAS_COND_AXIS_NAME_MAGICNO-5 "22020097.0000000000"
*MEAS_COND_AXIS_NAME_MAGICNO-6 "23068673.0000000000"
*MEAS_COND_AXIS_NAME_MAGICNO-7 "20971521.0000000000"
*MEAS_COND_AXIS_NAME_MAGICNO-8 "23068673.0000000000"
*MEAS_COND_AXIS_NAME_MAGICNO-9 "20971521.0000000000"
*MEAS_COND_AXIS_NAME_MAGICNO-10 "20971521.0000000000"
*MEAS_COND_AXIS_NAME_MAGICNO-11 "0.0000000000"
*MEAS_COND_AXIS_OFFSET-0 "0.0000000000"
*MEAS_COND_AXIS_OFFSET-1 "-"
*MEAS_COND_AXIS_OFFSET-2 "-"
*MEAS_COND_AXIS_OFFSET-3 "-"
*MEAS_COND_AXIS_OFFSET-4 "-"
*MEAS_COND_AXIS_OFFSET-5 "-"
*MEAS_COND_AXIS_OFFSET-6 "-"
*MEAS_COND_AXIS_OFFSET-7 "-"
*MEAS_COND_AXIS_OFFSET-8 "-"
*MEAS_COND_AXIS_OFFSET-9 "-"
*MEAS_COND_AXIS_OFFSET-10 "-"
*MEAS_COND_AXIS_OFFSET-11 "-"
*MEAS_COND_AXIS_POSITION-0 "92.5100000000"
*MEAS_COND_AXIS_POSITION-1 "0.0000000000"
*MEAS_COND_AXIS_POSITION-2 "4.0000000000"
*MEAS_COND_AXIS_POSITION-3 "2.5deg"
*MEAS_COND_AXIS_POSITION-4 "10.0mm"
*MEAS_COND_AXIS_POSITION-5 "0.625deg"
*MEAS_COND_AXIS_POSITION-6 "13.0mm"
*MEAS_COND_AXIS_POSITION-7 "2.5deg"
*MEAS_COND_AXIS_POSITION-8 "13.0mm"
*MEAS_COND_AXIS_POSITION-9 "K-beta(x1)"
*MEAS_COND_AXIS_POSITION-10 "None"
*MEAS_COND_AXIS_POSITION-11 "42.0000000000"
*MEAS_COND_AXIS_UNIT-0 "deg"
*MEAS_COND_AXIS_UNIT-1 ""
*MEAS_COND_AXIS_UNIT-2 ""
*MEAS_COND_AXIS_UNIT-3 ""
*MEAS_COND_AXIS_UNIT-4 ""
*MEAS_COND_AXIS_UNIT-5 ""
*MEAS_COND_AXIS_UNIT-6 ""
*MEAS_COND_AXIS_UNIT-7 ""
*MEAS_COND_AXIS_UNIT-8 ""
*MEAS_COND_AXIS_UNIT-9 ""
*MEAS_COND_AXIS_UNIT-10 ""
*MEAS_COND_AXIS_UNIT-11 "div"
*MEAS_COND_CORRECTION_SLIT_COUNTERMONO "None"
*MEAS_COND_CORRECTION_SLIT_DS "0.625deg"
*MEAS_COND_CORRECTION_SLIT_FILTER "None"
*MEAS_COND_CORRECTION_SLIT_IHS "10.0mm"
*MEAS_COND_CORRECTION_SLIT_RS "13.0mm"
*MEAS_COND_CORRECTION_SLIT_SOLLER_INC "2.5deg"
*MEAS_COND_CORRECTION_SLIT_SOLLER_REC "2.5deg"
*MEAS_COND_CORRECTION_SLIT_SS "13.0mm"
*MEAS_COND_COUNTER_CNTLOSS_CORR "0.0000000000"
*MEAS_COND_COUNTER_PHABASE "42.0000000000"
*MEAS_COND_COUNTER_PHAWINDOW "15.0000000000"
*MEAS_COND_COUNTER_PHA_UNIT "div"
*MEAS_COND_COUNTER_TAUDIFF "0.2500000000"
*MEAS_COND_COUNTER_TAUINT "0.7500000000"
*MEAS_COND_IRRADIATION_MODE "OFF"
*MEAS_COND_IRRADIATION_WIDTH ""
*MEAS_COND_OPT_ATTR " "
*MEAS_COND_OPT_NAME ""
*MEAS_COND_UNSYMMETRIC_MODE "OFF"
*MEAS_COND_XG_CURRENT "15.0000000000"
*MEAS_COND_XG_VOLTAGE "40.0000000000"
*MEAS_COND_XG_WAVE_TYPE "Ka"
*MEAS_DATA_COUNT "4251.0000000000"
*MEAS_SCAN_AXIS_X "Theta/2-Theta"
*MEAS_SCAN_AXIS_X_INTERNAL "TwoThetaTheta"
*MEAS_SCAN_END_TIME "03/04/19 15:43:56"
*MEAS_SCAN_MODE "CONTINUOUS"
*MEAS_SCAN_MONITOR "0"
*MEAS_SCAN_RESOLUTION_X "0.005"
*MEAS_SCAN_SPEED "10.000"
*MEAS_SCAN_SPEED_UNIT "deg/min"
*MEAS_SCAN_START "5.0000000000"
*MEAS_SCAN_START_TIME "03/04/19 15:34:31"
*MEAS_SCAN_STEP "0.0200000000"
*MEAS_SCAN_STOP "90.0000000000"
*MEAS_SCAN_UNIT_X "deg"
*MEAS_SCAN_UNIT_Y "counts"
*SLIT_SYSTEM "0"
*RAS_HEADER_END
*RAS_INT_START
5.000 555.000 1.000
5.020 547.000 1.000
5.040 584.000 1.000
5.060 576.000 1.000
5.080 520.000 1.000
5.100 500.000 1.000
5.120 520.000 1.000
5.140 510.000 1.000
5.160 498.000 1.000
5.180 506.000 1.000
5.200 501.000 1.000
5.220 460.000 1.000
5.240 470.000 1.000
5.260 463.000 1.000
5.280 476.000 1.000
5.300 447.000 1.000
5.320 437.000 1.000
5.340 483.000 1.000
5.360 491.000 1.000
5.380 476.000 1.000
5.400 463.000 1.000
5.420 446.000 1.000
5.440 470.000 1.000
5.460 463.000 1.000
5.480 448.000 1.000
5.500 416.000 1.000
5.520 423.000 1.000
5.540 406.000 1.000
5.560 432.000 1.000
5.580 412.000 1.000
5.600 390.000 1.000
5.620 410.000 1.000
5.640 409.000 1.000
5.660 421.000 1.000
5.680 393.000 1.000
5.700 388.000 1.000
5.720 387.000 1.000
5.740 397.000 1.000
5.760 402.000 1.000
5.780 402.000 1.000
5.800 402.000 1.000
5.820 375.000 1.000
5.840 376.000 1.000
5.860 359.000 1.000
5.880 362.000 1.000
5.900 362.000 1.000
5.920 361.000 1.000
5.940 360.000 1.000
5.960 351.000 1.000
5.980 348.000 1.000
6.000 361.000 1.000
6.020 330.000 1.000
6.040 340.000 1.000
6.060 367.000 1.000
6.080 350.000 1.000
6.100 370.000 1.000
6.120 349.000 1.000
6.140 315.000 1.000
6.160 311.000 1.000
6.180 338.000 1.000
6.200 351.000 1.000
6.220 327.000 1.000
6.240 317.000 1.000
6.260 321.000 1.000
6.280 311.000 1.000
6.300 314.000 1.000
6.320 338.000 1.000
6.340 327.000 1.000
6.360 317.000 1.000
6.380 299.000 1.000
6.400 302.000 1.000
6.420 287.000 1.000
6.440 286.000 1.000
6.460 296.000 1.000
6.480 311.000 1.000
6.500 289.000 1.000
6.520 295.000 1.000
6.540 284.000 1.000
6.560 276.000 1.000
6.580 291.000 1.000
6.600 307.000 1.000
6.620 293.000 1.000
6.640 262.000 1.000
6.660 268.000 1.000
6.680 277.000 1.000
6.700 251.000 1.000
6.720 236.000 1.000
6.740 245.000 1.000
6.760 253.000 1.000
6.780 248.000 1.000
6.800 251.000 1.000
6.820 251.000 1.000
6.840 259.000 1.000
6.860 276.000 1.000
6.880 271.000 1.000
6.900 267.000 1.000
6.920 262.000 1.000
6.940 277.000 1.000
6.960 280.000 1.000
6.980 262.000 1.000
7.000 251.000 1.000
7.020 258.000 1.000
7.040 255.000 1.000
7.060 253.000 1.000
7.080 237.000 1.000
7.100 229.000 1.000
7.120 237.000 1.000
7.140 218.000 1.000
7.160 250.000 1.000
7.180 263.000 1.000
7.200 235.000 1.000
7.220 243.000 1.000
7.240 252.000 1.000
7.260 247.000 1.000
7.280 231.000 1.000
7.300 216.000 1.000
7.320 214.000 1.000
7.340 225.000 1.000
7.360 231.000 1.000
7.380 229.000 1.000
7.400 231.000 1.000
7.420 244.000 1.000
7.440 230.000 1.000
7.460 225.000 1.000
7.480 227.000 1.000
7.500 220.000 1.000
7.520 212.000 1.000
7.540 217.000 1.000
7.560 222.000 1.000
7.580 222.000 1.000
7.600 213.000 1.000
7.620 219.000 1.000
7.640 220.000 1.000
7.660 215.000 1.000
7.680 207.000 1.000
7.700 200.000 1.000
7.720 213.000 1.000
7.740 208.000 1.000
7.760 202.000 1.000
7.780 220.000 1.000
7.800 230.000 1.000
7.820 221.000 1.000
7.840 212.000 1.000
7.860 204.000 1.000
7.880 193.000 1.000
7.900 189.000 1.000
7.920 185.000 1.000
7.940 201.000 1.000
7.960 214.000 1.000
7.980 206.000 1.000
8.000 193.000 1.000
8.020 206.000 1.000
8.040 200.000 1.000
8.060 202.000 1.000
8.080 217.000 1.000
8.100 216.000 1.000
8.120 212.000 1.000
8.140 192.000 1.000
8.160 199.000 1.000
8.180 201.000 1.000
8.200 205.000 1.000
8.220 198.000 1.000
8.240 180.000 1.000
8.260 185.000 1.000
8.280 197.000 1.000
8.300 199.000 1.000
8.320 209.000 1.000
8.340 197.000 1.000
8.360 181.000 1.000
8.380 184.000 1.000
8.400 173.000 1.000
8.420 174.000 1.000
8.440 183.000 1.000
8.460 188.000 1.000
8.480 194.000 1.000
8.500 182.000 1.000
8.520 179.000 1.000
8.540 182.000 1.000
8.560 182.000 1.000
8.580 180.000 1.000
8.600 173.000 1.000
8.620 173.000 1.000
8.640 172.000 1.000
8.660 178.000 1.000
8.680 178.000 1.000
8.700 177.000 1.000
8.720 179.000 1.000
8.740 179.000 1.000
8.760 171.000 1.000
8.780 180.000 1.000
8.800 182.000 1.000
8.820 167.000 1.000
8.840 162.000 1.000
8.860 161.000 1.000
8.880 165.000 1.000
8.900 158.000 1.000
8.920 157.000 1.000
8.940 168.000 1.000
8.960 166.000 1.000
8.980 160.000 1.000
9.000 167.000 1.000
9.020 165.000 1.000
9.040 160.000 1.000
9.060 168.000 1.000
9.080 171.000 1.000
9.100 181.000 1.000
9.120 176.000 1.000
9.140 167.000 1.000
9.160 155.000 1.000
9.180 160.000 1.000
9.200 175.000 1.000
9.220 174.000 1.000
9.240 170.000 1.000
9.260 162.000 1.000
9.280 159.000 1.000
9.300 163.000 1.000
9.320 168.000 1.000
9.340 167.000 1.000
9.360 166.000 1.000
9.380 173.000 1.000
9.400 167.000 1.000
9.420 168.000 1.000
9.440 171.000 1.000
9.460 165.000 1.000
9.480 164.000 1.000
9.500 165.000 1.000
9.520 170.000 1.000
9.540 170.000 1.000
9.560 161.000 1.000
9.580 158.000 1.000
9.600 161.000 1.000
9.620 167.000 1.000
9.640 165.000 1.000
9.660 152.000 1.000
9.680 157.000 1.000
9.700 169.000 1.000
9.720 166.000 1.000
9.740 162.000 1.000
9.760 161.000 1.000
9.780 176.000 1.000
9.800 172.000 1.000
9.820 166.000 1.000
9.840 166.000 1.000
9.860 157.000 1.000
9.880 163.000 1.000
9.900 171.000 1.000
9.920 168.000 1.000
9.940 165.000 1.000
9.960 158.000 1.000
9.980 153.000 1.000
10.000 159.000 1.000
10.020 167.000 1.000
10.040 166.000 1.000
10.060 156.000 1.000
10.080 162.000 1.000
10.100 163.000 1.000
10.120 152.000 1.000
10.140 159.000 1.000
10.160 156.000 1.000
10.180 149.000 1.000
10.200 152.000 1.000
10.220 146.000 1.000
10.240 149.000 1.000
10.260 160.000 1.000
10.280 151.000 1.000
10.300 142.000 1.000
10.320 143.000 1.000
10.340 156.000 1.000
10.360 162.000 1.000
10.380 150.000 1.000
10.400 146.000 1.000
10.420 152.000 1.000
10.440 164.000 1.000
10.460 159.000 1.000
10.480 149.000 1.000
10.500 158.000 1.000
10.520 164.000 1.000
10.540 152.000 1.000
10.560 138.000 1.000
10.580 142.000 1.000
10.600 151.000 1.000
10.620 145.000 1.000
10.640 145.000 1.000
10.660 157.000 1.000
10.680 168.000 1.000
10.700 159.000 1.000
10.720 150.000 1.000
10.740 152.000 1.000
10.760 139.000 1.000
10.780 135.000 1.000
10.800 140.000 1.000
10.820 140.000 1.000
10.840 148.000 1.000
10.860 151.000 1.000
10.880 147.000 1.000
10.900 152.000 1.000
10.920 153.000 1.000
10.940 142.000 1.000
10.960 145.000 1.000
10.980 141.000 1.000
11.000 138.000 1.000
11.020 147.000 1.000
11.040 146.000 1.000
11.060 151.000 1.000
11.080 142.000 1.000
11.100 141.000 1.000
11.120 145.000 1.000
11.140 142.000 1.000
11.160 146.000 1.000
11.180 144.000 1.000
11.200 141.000 1.000
11.220 152.000 1.000
11.240 153.000 1.000
11.260 160.000 1.000
11.280 165.000 1.000
11.300 155.000 1.000
11.320 152.000 1.000
11.340 156.000 1.000
11.360 155.000 1.000
11.380 156.000 1.000
11.400 149.000 1.000
11.420 141.000 1.000
11.440 141.000 1.000
11.460 136.000 1.000
11.480 134.000 1.000
11.500 141.000 1.000
11.520 143.000 1.000
11.540 143.000 1.000
11.560 140.000 1.000
11.580 142.000 1.000
11.600 156.000 1.000
11.620 155.000 1.000
11.640 143.000 1.000
11.660 152.000 1.000
11.680 155.000 1.000
11.700 150.000 1.000
11.720 154.000 1.000
11.740 162.000 1.000
11.760 168.000 1.000
11.780 166.000 1.000
11.800 150.000 1.000
11.820 144.000 1.000
11.840 143.000 1.000
11.860 144.000 1.000
11.880 148.000 1.000
11.900 141.000 1.000
11.920 139.000 1.000
11.940 145.000 1.000
11.960 143.000 1.000
11.980 138.000 1.000
12.000 139.000 1.000
12.020 150.000 1.000
12.040 158.000 1.000
12.060 154.000 1.000
12.080 153.000 1.000
12.100 145.000 1.000
12.120 150.000 1.000
12.140 152.000 1.000
12.160 145.000 1.000
12.180 148.000 1.000
12.200 150.000 1.000
12.220 154.000 1.000
12.240 161.000 1.000
12.260 159.000 1.000
12.280 140.000 1.000
12.300 147.000 1.000
12.320 155.000 1.000
12.340 150.000 1.000
12.360 146.000 1.000
12.380 138.000 1.000
12.400 137.000 1.000
12.420 132.000 1.000
12.440 129.000 1.000
12.460 136.000 1.000
12.480 147.000 1.000
12.500 151.000 1.000
12.520 147.000 1.000
12.540 145.000 1.000
12.560 136.000 1.000
12.580 129.000 1.000
12.600 136.000 1.000
12.620 137.000 1.000
12.640 136.000 1.000
12.660 135.000 1.000
12.680 149.000 1.000
12.700 157.000 1.000
12.720 129.000 1.000
12.740 123.000 1.000
12.760 142.000 1.000
12.780 139.000 1.000
12.800 143.000 1.000
12.820 155.000 1.000
12.840 147.000 1.000
12.860 137.000 1.000
12.880 128.000 1.000
12.900 126.000 1.000
12.920 125.000 1.000
12.940 121.000 1.000
12.960 139.000 1.000
12.980 148.000 1.000
13.000 144.000 1.000
13.020 144.000 1.000
13.040 144.000 1.000
13.060 150.000 1.000
13.080 148.000 1.000
13.100 143.000 1.000
13.120 144.000 1.000
13.140 137.000 1.000
13.160 128.000 1.000
13.180 133.000 1.000
13.200 140.000 1.000
13.220 150.000 1.000
13.240 150.000 1.000
13.260 146.000 1.000
13.280 148.000 1.000
13.300 139.000 1.000
13.320 134.000 1.000
13.340 139.000 1.000
13.360 150.000 1.000
13.380 163.000 1.000
13.400 146.000 1.000
13.420 138.000 1.000
13.440 150.000 1.000
13.460 151.000 1.000
13.480 150.000 1.000
13.500 142.000 1.000
13.520 143.000 1.000
13.540 153.000 1.000
13.560 152.000 1.000
13.580 152.000 1.000
13.600 161.000 1.000
13.620 155.000 1.000
13.640 156.000 1.000
13.660 156.000 1.000
13.680 152.000 1.000
13.700 157.000 1.000
13.720 163.000 1.000
13.740 163.000 1.000
13.760 157.000 1.000
13.780 162.000 1.000
13.800 167.000 1.000
13.820 157.000 1.000
13.840 143.000 1.000
13.860 149.000 1.000
13.880 169.000 1.000
13.900 170.000 1.000
13.920 162.000 1.000
13.940 155.000 1.000
13.960 157.000 1.000
13.980 153.000 1.000
14.000 152.000 1.000
14.020 152.000 1.000
14.040 149.000 1.000
14.060 166.000 1.000
14.080 167.000 1.000
14.100 154.000 1.000
14.120 155.000 1.000
14.140 165.000 1.000
14.160 162.000 1.000
14.180 157.000 1.000
14.200 163.000 1.000
14.220 154.000 1.000
14.240 159.000 1.000
14.260 162.000 1.000
14.280 150.000 1.000
14.300 153.000 1.000
14.320 160.000 1.000
14.340 163.000 1.000
14.360 169.000 1.000
14.380 163.000 1.000
14.400 149.000 1.000
14.420 156.000 1.000
14.440 176.000 1.000
14.460 176.000 1.000
14.480 175.000 1.000
14.500 166.000 1.000
14.520 150.000 1.000
14.540 152.000 1.000
14.560 153.000 1.000
14.580 158.000 1.000
14.600 165.000 1.000
14.620 169.000 1.000
14.640 154.000 1.000
14.660 152.000 1.000
14.680 150.000 1.000
14.700 142.000 1.000
14.720 150.000 1.000
14.740 154.000 1.000
14.760 159.000 1.000
14.780 166.000 1.000
14.800 167.000 1.000
14.820 158.000 1.000
14.840 158.000 1.000
14.860 156.000 1.000
14.880 158.000 1.000
14.900 162.000 1.000
14.920 157.000 1.000
14.940 143.000 1.000
14.960 144.000 1.000
14.980 163.000 1.000
15.000 164.000 1.000
15.020 158.000 1.000
15.040 157.000 1.000
15.060 153.000 1.000
15.080 146.000 1.000
15.100 148.000 1.000
15.120 152.000 1.000
15.140 149.000 1.000
15.160 153.000 1.000
15.180 158.000 1.000
15.200 166.000 1.000
15.220 161.000 1.000
15.240 151.000 1.000
15.260 144.000 1.000
15.280 133.000 1.000
15.300 146.000 1.000
15.320 156.000 1.000
15.340 147.000 1.000
15.360 160.000 1.000
15.380 164.000 1.000
15.400 149.000 1.000
15.420 142.000 1.000
15.440 141.000 1.000
15.460 147.000 1.000
15.480 150.000 1.000
15.500 138.000 1.000
15.520 136.000 1.000
15.540 140.000 1.000
15.560 135.000 1.000
15.580 148.000 1.000
15.600 149.000 1.000
15.620 130.000 1.000
15.640 137.000 1.000
15.660 143.000 1.000
15.680 140.000 1.000
15.700 146.000 1.000
15.720 147.000 1.000
15.740 138.000 1.000
15.760 128.000 1.000
15.780 129.000 1.000
15.800 131.000 1.000
15.820 135.000 1.000
15.840 138.000 1.000
15.860 148.000 1.000
15.880 160.000 1.000
15.900 142.000 1.000
15.920 123.000 1.000
15.940 127.000 1.000
15.960 133.000 1.000
15.980 129.000 1.000
16.000 133.000 1.000
16.020 138.000 1.000
16.040 137.000 1.000
