*RAS_DATA_START
*RAS_HEADER_START
*CORR_POS_DB_NAME "correction_file_020419"
*CORR_POS_GONIO_RADIUS ""
*CORR_POS_NODE_INDEX01 ""
*CORR_POS_NODE_INDEX02 ""
*CORR_POS_NODE_INDEX03 ""
*CORR_POS_NODE_INDEX04 ""
*CORR_POS_NODE_INDEX05 ""
*CORR_POS_NODE_INDEX06 ""
*CORR_POS_NODE_INDEX07 ""
*CORR_POS_NODE_INDEX08 ""
*CORR_POS_NODE_INDEX09 ""
*CORR_POS_NODE_INDEX10 ""
*CORR_POS_NODE_INDEX11 ""
*CORR_POS_NODE_LABEL01 "Si(111)"
*CORR_POS_NODE_LABEL02 "Si(220)"
*CORR_POS_NODE_LABEL03 "Si(311)"
*CORR_POS_NODE_LABEL04 "Si(400)"
*CORR_POS_NODE_LABEL05 "Si(331)"
*CORR_POS_NODE_LABEL06 "Si(422)"
*CORR_POS_NODE_LABEL07 "Si(511)"
*CORR_POS_NODE_LABEL08 "Si(440)"
*CORR_POS_NODE_LABEL09 "Si(531)"
*CORR_POS_NODE_LABEL10 "Si(620)"
*CORR_POS_NODE_LABEL11 "Si(533)"
*CORR_POS_NODE_POS_CALC01 "28.4137"
*CORR_POS_NODE_POS_CALC02 "47.2707"
*CORR_POS_NODE_POS_CALC03 "56.0883"
*CORR_POS_NODE_POS_CALC04 "69.0934"
*CORR_POS_NODE_POS_CALC05 "76.3385"
*CORR_POS_NODE_POS_CALC06 "87.9915"
*CORR_POS_NODE_POS_CALC07 "94.9137"
*CORR_POS_NODE_POS_CALC08 "106.67"
*CORR_POS_NODE_POS_CALC09 "114.054"
*CORR_POS_NODE_POS_CALC10 "127.508"
*CORR_POS_NODE_POS_CALC11 "136.858"
*CORR_POS_NODE_POS_MEAS01 "28.463"
*CORR_POS_NODE_POS_MEAS02 "47.3124"
*CORR_POS_NODE_POS_MEAS03 "56.1276"
*CORR_POS_NODE_POS_MEAS04 "69.1418"
*CORR_POS_NODE_POS_MEAS05 "76.3865"
*CORR_POS_NODE_POS_MEAS06 "88.0411"
*CORR_POS_NODE_POS_MEAS07 "94.9598"
*CORR_POS_NODE_POS_MEAS08 "106.713"
*CORR_POS_NODE_POS_MEAS09 "114.102"
*CORR_POS_NODE_POS_MEAS10 "127.558"
*CORR_POS_NODE_POS_MEAS11 "136.911"
*CORR_POS_OPT_ATTR "集中法"
*CORR_POS_PARAM_MU ""
*CORR_POS_PARAM_PL ""
*CORR_POS_SEMODEL_TYPE "0"
*CORR_POS_STANDARD_TYPE ""
*CORR_POS_VALUE_ANALYZER "None"
*CORR_POS_VALUE_CMONO "None"
*CORR_POS_VALUE_IMONO "None"
*CORR_POS_VALUE_IS "0.625deg"
*CORR_POS_VALUE_ISL "10.0mm"
*CORR_POS_VALUE_ISOLLER "2.5deg"
*CORR_POS_VALUE_RS1 "13.0mm"
*CORR_POS_VALUE_RS2 "13.0mm"
*CORR_POS_VALUE_RSOLLER "2.5deg"
*CORR_POS_XG_FOCUS_L ""
*CORR_POS_XG_WAVE_TYPE ""
*CORR_POS_XG_WAVE_VALUE ""
*DISP_FMT_X "%.2f"
*DISP_FMT_Y "%.0f"
*DISP_FULLSCALE "23870.0000000000"
*DISP_LINE_COLOR "255.0000000000"
*DISP_LINE_STYLE "0.0000000000"
*DISP_LINE_WIDTH "0.2500000000"
*DISP_NOTE "Collected Data-3"
*DISP_OFFSET_Y "0.0000000000"
*DISP_PEAKSEARCH_UNIT_Y "cps"
*DISP_RANGE_BOTTOM "0.0000000000"
*DISP_RANGE_LEFT "5.0000000000"
*DISP_RANGE_LOGCUTOFF "0.0100000000"
*DISP_RANGE_RIGHT "90.0000000000"
*DISP_RANGE_TOP "23870.0000000000"
*DISP_SCALE_MODE_Y "0.0000000000"
*DISP_TAB_NAME "Theta/2-Theta"
*DISP_TITLE_Y "Intensity"
*DISP_UNIT_Y "cps"
*DISP_WINDOW_NAME "MSG_MACROENGINE"
*FILE_COMMENT " "
*FILE_MD5 ""
*FILE_MEMO " "
*FILE_OPERATOR "SDU_RIGAKU"
*FILE_SAMPLE "TiO2-1-9h-BET"
*FILE_TYPE "RAS_RAW"
*FILE_USERGROUP "System User"
*FILE_VERSION "1.0000000000"
*HW_ATTACHMENT_ID "ATT1031"
*HW_ATTACHMENT_NAME "6サンプルチェンジャ|ASC-6"
*HW_COUNTER_ID-0 "CUT0025"
*HW_COUNTER_ID-1 "CUT0020"
*HW_COUNTER_ID-2 "CUT0020"
*HW_COUNTER_ID-3 "CMC0021"
*HW_COUNTER_NAME-0 "D/teX Ultra|D/teX Ultra"
*HW_COUNTER_NAME-1 "None|None"
*HW_COUNTER_NAME-2 "None|None"
*HW_COUNTER_NAME-3 "検出器モノクロメータ|Detector monochromator"
*HW_COUNTER_SELECT_NAME "D/teX Ultra|D/teX Ultra"
*HW_GONIOMETER_ID "GON0070"
*HW_GONIOMETER_NAME "MiniFlex 300/600|MiniFlex 300/600"
*HW_GONIOMETER_RADIUS-0 "79.0"
*HW_GONIOMETER_RADIUS-1 "91.5"
*HW_GONIOMETER_RADIUS-2 "150.0"
*HW_GONIOMETER_RADIUS-3 "0"
*HW_GONIOMETER_RADIUS-4 "103.4"
*HW_GONIOMETER_RADIUS-5 "150.0"
*HW_GONIOMETER_RADIUS-6 "46.6"
*HW_GONIOMETER_RADIUS-7 "160.0"
*HW_I_OPT_ID-0 "ISL0021"
*HW_I_OPT_ID-1 "ISO0021"
*HW_I_OPT_NAME-0 "発散スリット|Divergence slit"
*HW_I_OPT_NAME-1 "入射平行スリット|Incident parallel slit"
*HW_R_ATTENUATER_AUTOMODE "0"
*HW_R_OPT_ID-0 "RSS0021"
*HW_R_OPT_ID-1 "RSO0021"
*HW_R_OPT_ID-2 "RRS0021"
*HW_R_OPT_NAME-0 "散乱スリット|Scattering slit"
*HW_R_OPT_NAME-1 "受光平行スリット|Receiving soller slit"
*HW_R_OPT_NAME-2 "受光スリット|Receiving slit"
*HW_SAMPLE_HOLDER_ID "SMP0000"
*HW_SAMPLE_HOLDER_NAME "無し|None"
*HW_XG_CURRENT_MAX "15"
*HW_XG_CURRENT_MIN "2"
*HW_XG_CURRENT_RESOLUTION "1"
*HW_XG_CURRENT_UNIT "mA"
*HW_XG_FOCUS "1mm x 10mm"
*HW_XG_FOCUS_TYPE "Normal"
*HW_XG_ID ""
*HW_XG_NAME "300W/600W 封入管-B|300W/600W Sealed tube-B"
*HW_XG_TARGET_ATOMIC_NUMBER "29.0000000000"
*HW_XG_TARGET_NAME "Cu"
*HW_XG_TYPE "Hermetic"
*HW_XG_VOLTAGE_MAX "40"
*HW_XG_VOLTAGE_MIN "20"
*HW_XG_VOLTAGE_RESOLUTION "1"
*HW_XG_VOLTAGE_UNIT "kV"
*HW_XG_WATT_MAX "1"
*HW_XG_WATT_UNIT "kW"
*HW_XG_WAVE_LENGTH_ALPHA1 "1.540593"
*HW_XG_WAVE_LENGTH_ALPHA2 "1.544414"
*HW_XG_WAVE_LENGTH_BETA "1.392250"
*MEAS_COND_AXIS_NAME-0 "Theta/2-Theta"
*MEAS_COND_AXIS_NAME-1 "Spin"
*MEAS_COND_AXIS_NAME-2 "Change"
*MEAS_COND_AXIS_NAME-3 "Soller(inc.)"
*MEAS_COND_AXIS_NAME-4 "IHS"
*MEAS_COND_AXIS_NAME-5 "DS"
*MEAS_COND_AXIS_NAME-6 "SS"
*MEAS_COND_AXIS_NAME-7 "Soller(rec.)"
*MEAS_COND_AXIS_NAME-8 "RS"
*MEAS_COND_AXIS_NAME-9 "Filter"
*MEAS_COND_AXIS_NAME-10 "Monochromator"
*MEAS_COND_AXIS_NAME-11 "PHA"
*MEAS_COND_AXIS_NAME_INTERNAL-0 "TwoThetaTheta"
*MEAS_COND_AXIS_NAME_INTERNAL-1 "Spin"
*MEAS_COND_AXIS_NAME_INTERNAL-2 "Change"
*MEAS_COND_AXIS_NAME_INTERNAL-3 "IncidentSollerSlit"
*MEAS_COND_AXIS_NAME_INTERNAL-4 "IncidentAxdSlit"
*MEAS_COND_AXIS_NAME_INTERNAL-5 "IncidentSlitBox"
*MEAS_COND_AXIS_NAME_INTERNAL-6 "ReceivingSlitBox1"
*MEAS_COND_AXIS_NAME_INTERNAL-7 "ReceivingSollerSlit"
*MEAS_COND_AXIS_NAME_INTERNAL-8 "ReceivingSlitBox2"
*MEAS_COND_AXIS_NAME_INTERNAL-9 "Filter"
*MEAS_COND_AXIS_NAME_INTERNAL-10 "CounterMonochromator"
*MEAS_COND_AXIS_NAME_INTERNAL-11 "PHA"
*MEAS_COND_AXIS_NAME_MAGICNO-0 "268632064.0000000000"
*MEAS_COND_AXIS_NAME_MAGICNO-1 "16842752.0000000000"
*MEAS_COND_AXIS_NAME_MAGICNO-2 "16842752.0000000000"
*MEAS_COND_AXIS_NAME_MAGICNO-3 "20971521.0000000000"
*MEAS_COND_AXIS_NAME_MAGICNO-4 "22020097.0000000000"
*MEAS_COND_AXIS_NAME_MAGICNO-5 "22020097.0000000000"
*MEAS_COND_AXIS_NAME_MAGICNO-6 "23068673.0000000000"
*MEAS_COND_AXIS_NAME_MAGICNO-7 "20971521.0000000000"
*MEAS_COND_AXIS_NAME_MAGICNO-8 "23068673.0000000000"
*MEAS_COND_AXIS_NAME_MAGICNO-9 "20971521.0000000000"
*MEAS_COND_AXIS_NAME_MAGICNO-10 "20971521.0000000000"
*MEAS_COND_AXIS_NAME_MAGICNO-11 "0.0000000000"
*MEAS_COND_AXIS_OFFSET-0 "0.0000000000"
*MEAS_COND_AXIS_OFFSET-1 "-"
*MEAS_COND_AXIS_OFFSET-2 "-"
*MEAS_COND_AXIS_OFFSET-3 "-"
*MEAS_COND_AXIS_OFFSET-4 "-"
*MEAS_COND_AXIS_OFFSET-5 "-"
*MEAS_COND_AXIS_OFFSET-6 "-"
*MEAS_COND_AXIS_OFFSET-7 "-"
*MEAS_COND_AXIS_OFFSET-8 "-"
*MEAS_COND_AXIS_OFFSET-9 "-"
*MEAS_COND_AXIS_OFFSET-10 "-"
*MEAS_COND_AXIS_OFFSET-11 "-"
*MEAS_COND_AXIS_POSITION-0 "10.0000000000"
*MEAS_COND_AXIS_POSITION-1 "0.0000000000"
*MEAS_COND_AXIS_POSITION-2 "3.0000000000"
*MEAS_COND_AXIS_POSITION-3 "2.5deg"
*MEAS_COND_AXIS_POSITION-4 "10.0mm"
*MEAS_COND_AXIS_POSITION-5 "0.625deg"
*MEAS_COND_AXIS_POSITION-6 "13.0mm"
*MEAS_COND_AXIS_POSITION-7 "2.5deg"
*MEAS_COND_AXIS_POSITION-8 "13.0mm"
*MEAS_COND_AXIS_POSITION-9 "K-beta(x1)"
*MEAS_COND_AXIS_POSITION-10 "None"
*MEAS_COND_AXIS_POSITION-11 "42.0000000000"
*MEAS_COND_AXIS_UNIT-0 "deg"
*MEAS_COND_AXIS_UNIT-1 ""
*MEAS_COND_AXIS_UNIT-2 ""
*MEAS_COND_AXIS_UNIT-3 ""
*MEAS_COND_AXIS_UNIT-4 ""
*MEAS_COND_AXIS_UNIT-5 ""
*MEAS_COND_AXIS_UNIT-6 ""
*MEAS_COND_AXIS_UNIT-7 ""
*MEAS_COND_AXIS_UNIT-8 ""
*MEAS_COND_AXIS_UNIT-9 ""
*MEAS_COND_AXIS_UNIT-10 ""
*MEAS_COND_AXIS_UNIT-11 "div"
*MEAS_COND_CORRECTION_SLIT_COUNTERMONO "None"
*MEAS_COND_CORRECTION_SLIT_DS "0.625deg"
*MEAS_COND_CORRECTION_SLIT_FILTER "None"
*MEAS_COND_CORRECTION_SLIT_IHS "10.0mm"
*MEAS_COND_CORRECTION_SLIT_RS "13.0mm"
*MEAS_COND_CORRECTION_SLIT_SOLLER_INC "2.5deg"
*MEAS_COND_CORRECTION_SLIT_SOLLER_REC "2.5deg"
*MEAS_COND_CORRECTION_SLIT_SS "13.0mm"
*MEAS_COND_COUNTER_CNTLOSS_CORR "0.0000000000"
*MEAS_COND_COUNTER_PHABASE "42.0000000000"
*MEAS_COND_COUNTER_PHAWINDOW "15.0000000000"
*MEAS_COND_COUNTER_PHA_UNIT "div"
*MEAS_COND_COUNTER_TAUDIFF "0.2500000000"
*MEAS_COND_COUNTER_TAUINT "0.7500000000"
*MEAS_COND_IRRADIATION_MODE "OFF"
*MEAS_COND_IRRADIATION_WIDTH ""
*MEAS_COND_OPT_ATTR " "
*MEAS_COND_OPT_NAME ""
*MEAS_COND_UNSYMMETRIC_MODE "OFF"
*MEAS_COND_XG_CURRENT "15.0000000000"
*MEAS_COND_XG_VOLTAGE "40.0000000000"
*MEAS_COND_XG_WAVE_TYPE "Ka"
*MEAS_DATA_COUNT "4251.0000000000"
*MEAS_SCAN_AXIS_X "Theta/2-Theta"
*MEAS_SCAN_AXIS_X_INTERNAL "TwoThetaTheta"
*MEAS_SCAN_END_TIME "04/16/19 13:49:30"
*MEAS_SCAN_MODE "CONTINUOUS"
*MEAS_SCAN_MONITOR "0"
*MEAS_SCAN_RESOLUTION_X "0.005"
*MEAS_SCAN_SPEED "10.000"
*MEAS_SCAN_SPEED_UNIT "deg/min"
*MEAS_SCAN_START "5.0000000000"
*MEAS_SCAN_START_TIME "04/16/19 13:40:14"
*MEAS_SCAN_STEP "0.0200000000"
*MEAS_SCAN_STOP "90.0000000000"
*MEAS_SCAN_UNIT_X "deg"
*MEAS_SCAN_UNIT_Y "counts"
*SLIT_SYSTEM "0"
*RAS_HEADER_END
*RAS_INT_START
5.000 392.000 1.000
5.020 331.000 1.000
5.040 322.000 1.000
5.060 316.000 1.000
5.080 351.000 1.000
5.100 348.000 1.000
5.120 363.000 1.000
5.140 349.000 1.000
5.160 288.000 1.000
5.180 339.000 1.000
5.200 291.000 1.000
5.220 329.000 1.000
5.240 312.000 1.000
5.260 289.000 1.000
5.280 301.000 1.000
5.300 344.000 1.000
5.320 276.000 1.000
5.340 320.000 1.000
5.360 333.000 1.000
5.380 293.000 1.000
5.400 259.000 1.000
5.420 295.000 1.000
5.440 275.000 1.000
5.460 282.000 1.000
5.480 286.000 1.000
5.500 316.000 1.000
5.520 262.000 1.000
5.540 276.000 1.000
5.560 265.000 1.000
5.580 234.000 1.000
5.600 255.000 1.000
5.620 254.000 1.000
5.640 253.000 1.000
5.660 266.000 1.000
5.680 291.000 1.000
5.700 267.000 1.000
5.720 258.000 1.000
5.740 283.000 1.000
5.760 269.000 1.000
5.780 254.000 1.000
5.800 275.000 1.000
5.820 250.000 1.000
5.840 240.000 1.000
5.860 225.000 1.000
5.880 254.000 1.000
5.900 256.000 1.000
5.920 243.000 1.000
5.940 233.000 1.000
5.960 229.000 1.000
5.980 242.000 1.000
6.000 261.000 1.000
6.020 265.000 1.000
6.040 215.000 1.000
6.060 222.000 1.000
6.080 246.000 1.000
6.100 216.000 1.000
6.120 211.000 1.000
6.140 208.000 1.000
6.160 241.000 1.000
6.180 210.000 1.000
6.200 218.000 1.000
6.220 236.000 1.000
6.240 211.000 1.000
6.260 218.000 1.000
6.280 228.000 1.000
6.300 225.000 1.000
6.320 208.000 1.000
6.340 218.000 1.000
6.360 222.000 1.000
6.380 231.000 1.000
6.400 241.000 1.000
6.420 209.000 1.000
6.440 216.000 1.000
6.460 195.000 1.000
6.480 202.000 1.000
6.500 224.000 1.000
6.520 209.000 1.000
6.540 203.000 1.000
6.560 198.000 1.000
6.580 193.000 1.000
6.600 200.000 1.000
6.620 210.000 1.000
6.640 198.000 1.000
6.660 203.000 1.000
6.680 183.000 1.000
6.700 187.000 1.000
6.720 210.000 1.000
6.740 220.000 1.000
6.760 206.000 1.000
6.780 191.000 1.000
6.800 209.000 1.000
6.820 159.000 1.000
6.840 187.000 1.000
6.860 185.000 1.000
6.880 153.000 1.000
6.900 191.000 1.000
6.920 186.000 1.000
6.940 184.000 1.000
6.960 199.000 1.000
6.980 186.000 1.000
7.000 168.000 1.000
7.020 173.000 1.000
7.040 186.000 1.000
7.060 201.000 1.000
7.080 191.000 1.000
7.100 191.000 1.000
7.120 165.000 1.000
7.140 186.000 1.000
7.160 202.000 1.000
7.180 178.000 1.000
7.200 182.000 1.000
7.220 167.000 1.000
7.240 169.000 1.000
7.260 166.000 1.000
7.280 182.000 1.000
7.300 179.000 1.000
7.320 161.000 1.000
7.340 169.000 1.000
7.360 174.000 1.000
7.380 170.000 1.000
7.400 172.000 1.000
7.420 174.000 1.000
7.440 164.000 1.000
7.460 168.000 1.000
7.480 166.000 1.000
7.500 193.000 1.000
7.520 180.000 1.000
7.540 178.000 1.000
7.560 162.000 1.000
7.580 165.000 1.000
7.600 172.000 1.000
7.620 196.000 1.000
7.640 191.000 1.000
7.660 184.000 1.000
7.680 158.000 1.000
7.700 156.000 1.000
7.720 165.000 1.000
7.740 175.000 1.000
7.760 167.000 1.000
7.780 193.000 1.000
7.800 164.000 1.000
7.820 176.000 1.000
7.840 169.000 1.000
7.860 152.000 1.000
7.880 171.000 1.000
7.900 181.000 1.000
7.920 177.000 1.000
7.940 164.000 1.000
7.960 156.000 1.000
7.980 160.000 1.000
8.000 147.000 1.000
8.020 155.000 1.000
8.040 166.000 1.000
8.060 162.000 1.000
8.080 147.000 1.000
8.100 166.000 1.000
8.120 168.000 1.000
8.140 151.000 1.000
8.160 157.000 1.000
8.180 159.000 1.000
8.200 165.000 1.000
8.220 152.000 1.000
8.240 154.000 1.000
8.260 155.000 1.000
8.280 151.000 1.000
8.300 155.000 1.000
8.320 162.000 1.000
8.340 169.000 1.000
8.360 156.000 1.000
8.380 155.000 1.000
8.400 158.000 1.000
8.420 140.000 1.000
8.440 144.000 1.000
8.460 146.000 1.000
8.480 165.000 1.000
8.500 169.000 1.000
8.520 154.000 1.000
8.540 159.000 1.000
8.560 165.000 1.000
8.580 148.000 1.000
8.600 164.000 1.000
8.620 152.000 1.000
8.640 159.000 1.000
8.660 152.000 1.000
8.680 157.000 1.000
8.700 158.000 1.000
8.720 147.000 1.000
8.740 140.000 1.000
8.760 132.000 1.000
8.780 145.000 1.000
8.800 144.000 1.000
8.820 148.000 1.000
8.840 154.000 1.000
8.860 159.000 1.000
8.880 154.000 1.000
8.900 139.000 1.000
8.920 142.000 1.000
8.940 152.000 1.000
8.960 154.000 1.000
8.980 163.000 1.000
9.000 155.000 1.000
9.020 153.000 1.000
9.040 136.000 1.000
9.060 156.000 1.000
9.080 157.000 1.000
9.100 141.000 1.000
9.120 144.000 1.000
9.140 153.000 1.000
9.160 150.000 1.000
9.180 142.000 1.000
9.200 152.000 1.000
9.220 145.000 1.000
9.240 134.000 1.000
9.260 148.000 1.000
9.280 133.000 1.000
9.300 146.000 1.000
9.320 158.000 1.000
9.340 157.000 1.000
9.360 127.000 1.000
9.380 140.000 1.000
9.400 147.000 1.000
9.420 146.000 1.000
9.440 147.000 1.000
9.460 134.000 1.000
9.480 133.000 1.000
9.500 143.000 1.000
9.520 156.000 1.000
9.540 156.000 1.000
9.560 132.000 1.000
9.580 142.000 1.000
9.600 141.000 1.000
9.620 144.000 1.000
9.640 158.000 1.000
9.660 145.000 1.000
9.680 139.000 1.000
9.700 150.000 1.000
9.720 149.000 1.000
9.740 126.000 1.000
9.760 142.000 1.000
9.780 140.000 1.000
9.800 144.000 1.000
9.820 135.000 1.000
9.840 140.000 1.000
9.860 139.000 1.000
9.880 130.000 1.000
9.900 136.000 1.000
9.920 138.000 1.000
9.940 151.000 1.000
9.960 143.000 1.000
9.980 131.000 1.000
10.000 139.000 1.000
10.020 148.000 1.000
10.040 156.000 1.000
10.060 159.000 1.000
10.080 138.000 1.000
10.100 146.000 1.000
10.120 153.000 1.000
10.140 146.000 1.000
10.160 156.000 1.000
10.180 133.000 1.000
10.200 138.000 1.000
10.220 131.000 1.000
10.240 143.000 1.000
10.260 134.000 1.000
10.280 162.000 1.000
10.300 159.000 1.000
10.320 147.000 1.000
10.340 144.000 1.000
10.360 141.000 1.000
10.380 145.000 1.000
10.400 142.000 1.000
10.420 125.000 1.000
10.440 131.000 1.000
10.460 131.000 1.000
10.480 136.000 1.000
10.500 145.000 1.000
10.520 140.000 1.000
10.540 135.000 1.000
10.560 132.000 1.000
10.580 137.000 1.000
10.600 137.000 1.000
10.620 140.000 1.000
10.640 132.000 1.000
10.660 131.000 1.000
10.680 138.000 1.000
10.700 140.000 1.000
10.720 147.000 1.000
10.740 143.000 1.000
10.760 131.000 1.000
10.780 143.000 1.000
10.800 140.000 1.000
10.820 162.000 1.000
10.840 144.000 1.000
10.860 145.000 1.000
10.880 138.000 1.000
10.900 140.000 1.000
10.920 143.000 1.000
10.940 122.000 1.000
10.960 127.000 1.000
10.980 140.000 1.000
11.000 130.000 1.000
11.020 123.000 1.000
11.040 129.000 1.000
11.060 152.000 1.000
11.080 132.000 1.000
11.100 122.000 1.000
11.120 150.000 1.000
11.140 152.000 1.000
11.160 141.000 1.000
11.180 152.000 1.000
11.200 135.000 1.000
11.220 122.000 1.000
11.240 119.000 1.000
11.260 134.000 1.000
11.280 152.000 1.000
11.300 131.000 1.000
11.320 143.000 1.000
11.340 130.000 1.000
11.360 138.000 1.000
11.380 143.000 1.000
11.400 149.000 1.000
11.420 153.000 1.000
11.440 164.000 1.000
11.460 146.000 1.000
11.480 150.000 1.000
11.500 140.000 1.000
11.520 116.000 1.000
11.540 125.000 1.000
11.560 152.000 1.000
11.580 137.000 1.000
11.600 135.000 1.000
11.620 142.000 1.000
11.640 147.000 1.000
11.660 133.000 1.000
11.680 142.000 1.000
11.700 135.000 1.000
11.720 137.000 1.000
11.740 151.000 1.000
11.760 145.000 1.000
11.780 134.000 1.000
11.800 139.000 1.000
11.820 142.000 1.000
11.840 137.000 1.000
11.860 127.000 1.000
11.880 135.000 1.000
11.900 137.000 1.000
11.920 135.000 1.000
11.940 145.000 1.000
11.960 127.000 1.000
11.980 133.000 1.000
12.000 143.000 1.000
12.020 147.000 1.000
12.040 143.000 1.000
12.060 129.000 1.000
12.080 142.000 1.000
12.100 137.000 1.000
12.120 132.000 1.000
12.140 132.000 1.000
12.160 141.000 1.000
12.180 141.000 1.000
12.200 142.000 1.000
12.220 154.000 1.000
12.240 153.000 1.000
12.260 133.000 1.000
12.280 136.000 1.000
12.300 132.000 1.000
12.320 135.000 1.000
12.340 135.000 1.000
12.360 133.000 1.000
12.380 118.000 1.000
12.400 116.000 1.000
12.420 126.000 1.000
12.440 133.000 1.000
12.460 137.000 1.000
12.480 121.000 1.000
12.500 129.000 1.000
12.520 137.000 1.000
12.540 138.000 1.000
12.560 136.000 1.000
12.580 129.000 1.000
12.600 127.000 1.000
12.620 122.000 1.000
12.640 121.000 1.000
12.660 134.000 1.000
12.680 119.000 1.000
12.700 121.000 1.000
12.720 135.000 1.000
12.740 141.000 1.000
12.760 150.000 1.000
12.780 144.000 1.000
12.800 134.000 1.000
12.820 123.000 1.000
12.840 122.000 1.000
12.860 118.000 1.000
12.880 132.000 1.000
12.900 122.000 1.000
12.920 135.000 1.000
12.940 136.000 1.000
12.960 130.000 1.000
12.980 133.000 1.000
13.000 145.000 1.000
13.020 140.000 1.000
13.040 152.000 1.000
13.060 137.000 1.000
13.080 129.000 1.000
13.100 139.000 1.000
13.120 128.000 1.000
13.140 134.000 1.000
13.160 134.000 1.000
13.180 112.000 1.000
13.200 107.000 1.000
13.220 122.000 1.000
13.240 128.000 1.000
13.260 121.000 1.000
13.280 119.000 1.000
13.300 134.000 1.000
13.320 149.000 1.000
13.340 147.000 1.000
13.360 123.000 1.000
13.380 125.000 1.000
13.400 139.000 1.000
13.420 135.000 1.000
13.440 128.000 1.000
13.460 129.000 1.000
13.480 127.000 1.000
13.500 137.000 1.000
13.520 134.000 1.000
13.540 139.000 1.000
13.560 140.000 1.000
13.580 132.000 1.000
13.600 131.000 1.000
13.620 142.000 1.000
13.640 136.000 1.000
13.660 129.000 1.000
13.680 129.000 1.000
13.700 126.000 1.000
13.720 116.000 1.000
13.740 128.000 1.000
13.760 135.000 1.000
13.780 127.000 1.000
13.800 131.000 1.000
13.820 135.000 1.000
13.840 144.000 1.000
13.860 134.000 1.000
13.880 122.000 1.000
13.900 122.000 1.000
13.920 126.000 1.000
13.940 142.000 1.000
13.960 136.000 1.000
13.980 129.000 1.000
14.000 135.000 1.000
14.020 133.000 1.000
14.040 140.000 1.000
14.060 144.000 1.000
14.080 146.000 1.000
14.100 137.000 1.000
14.120 131.000 1.000
14.140 129.000 1.000
14.160 134.000 1.000
14.180 151.000 1.000
14.200 132.000 1.000
14.220 139.000 1.000
14.240 138.000 1.000
14.260 134.000 1.000
14.280 133.000 1.000
14.300 118.000 1.000
14.320 120.000 1.000
14.340 137.000 1.000
14.360 143.000 1.000
14.380 146.000 1.000
14.400 137.000 1.000
14.420 124.000 1.000
14.440 125.000 1.000
14.460 137.000 1.000
14.480 129.000 1.000
14.500 137.000 1.000
14.520 127.000 1.000
14.540 131.000 1.000
14.560 127.000 1.000
14.580 129.000 1.000
14.600 118.000 1.000
14.620 138.000 1.000
14.640 124.000 1.000
14.660 120.000 1.000
14.680 118.000 1.000
14.700 131.000 1.000
14.720 149.000 1.000
14.740 136.000 1.000
14.760 122.000 1.000
14.780 139.000 1.000
14.800 134.000 1.000
14.820 146.000 1.000
14.840 140.000 1.000
14.860 139.000 1.000
14.880 150.000 1.000
14.900 134.000 1.000
14.920 120.000 1.000
14.940 123.000 1.000
14.960 126.000 1.000
14.980 133.000 1.000
15.000 117.000 1.000
15.020 116.000 1.000
15.040 136.000 1.000
15.060 131.000 1.000
15.080 137.000 1.000
15.100 137.000 1.000
15.120 141.000 1.000
15.140 136.000 1.000
15.160 131.000 1.000
15.180 123.000 1.000
15.200 120.000 1.000
15.220 119.000 1.000
15.240 121.000 1.000
15.260 131.000 1.000
15.280 131.000 1.000
15.300 122.000 1.000
15.320 128.000 1.000
15.340 120.000 1.000
15.360 131.000 1.000
15.380 120.000 1.000
15.400 126.000 1.000
15.420 127.000 1.000
15.440 121.000 1.000
15.460 131.000 1.000
15.480 137.000 1.000
15.500 112.000 1.000
15.520 109.000 1.000
15.540 114.000 1.000
15.560 107.000 1.000
15.580 107.000 1.000
15.600 107.000 1.000
15.620 120.000 1.000
15.640 131.000 1.000
15.660 125.000 1.000
15.680 125.000 1.000
15.700 126.000 1.000
15.720 115.000 1.000
15.740 110.000 1.000
15.760 124.000 1.000
15.780 126.000 1.000
15.800 108.000 1.000
15.820 98.000 1.000
15.840 107.000 1.000
15.860 118.000 1.000
15.880 119.000 1.000
15.900 114.000 1.000
15.920 115.000 1.000
15.940 118.000 1.000
15.960 113.000 1.000
15.980 105.000 1.000
16.000 107.000 1.000
16.020 110.000 1.000
16.040 125.000 1.000
