*RAS_DATA_START
*RAS_HEADER_START
*CORR_POS_DB_NAME "correction_file_060219"
*CORR_POS_GONIO_RADIUS ""
*CORR_POS_NODE_INDEX01 ""
*CORR_POS_NODE_INDEX02 ""
*CORR_POS_NODE_INDEX03 ""
*CORR_POS_NODE_INDEX04 ""
*CORR_POS_NODE_INDEX05 ""
*CORR_POS_NODE_INDEX06 ""
*CORR_POS_NODE_INDEX07 ""
*CORR_POS_NODE_INDEX08 ""
*CORR_POS_NODE_INDEX09 ""
*CORR_POS_NODE_INDEX10 ""
*CORR_POS_NODE_INDEX11 ""
*CORR_POS_NODE_LABEL01 "Si(111)"
*CORR_POS_NODE_LABEL02 "Si(220)"
*CORR_POS_NODE_LABEL03 "Si(311)"
*CORR_POS_NODE_LABEL04 "Si(400)"
*CORR_POS_NODE_LABEL05 "Si(331)"
*CORR_POS_NODE_LABEL06 "Si(422)"
*CORR_POS_NODE_LABEL07 "Si(511)"
*CORR_POS_NODE_LABEL08 "Si(440)"
*CORR_POS_NODE_LABEL09 "Si(531)"
*CORR_POS_NODE_LABEL10 "Si(620)"
*CORR_POS_NODE_LABEL11 "Si(533)"
*CORR_POS_NODE_POS_CALC01 "28.4137"
*CORR_POS_NODE_POS_CALC02 "47.2707"
*CORR_POS_NODE_POS_CALC03 "56.0883"
*CORR_POS_NODE_POS_CALC04 "69.0934"
*CORR_POS_NODE_POS_CALC05 "76.3385"
*CORR_POS_NODE_POS_CALC06 "87.9915"
*CORR_POS_NODE_POS_CALC07 "94.9137"
*CORR_POS_NODE_POS_CALC08 "106.67"
*CORR_POS_NODE_POS_CALC09 "114.054"
*CORR_POS_NODE_POS_CALC10 "127.508"
*CORR_POS_NODE_POS_CALC11 "136.858"
*CORR_POS_NODE_POS_MEAS01 "28.4636"
*CORR_POS_NODE_POS_MEAS02 "47.3217"
*CORR_POS_NODE_POS_MEAS03 "56.1422"
*CORR_POS_NODE_POS_MEAS04 "69.1431"
*CORR_POS_NODE_POS_MEAS05 "76.3906"
*CORR_POS_NODE_POS_MEAS06 "88.0416"
*CORR_POS_NODE_POS_MEAS07 "94.9694"
*CORR_POS_NODE_POS_MEAS08 "106.719"
*CORR_POS_NODE_POS_MEAS09 "114.106"
*CORR_POS_NODE_POS_MEAS10 "127.554"
*CORR_POS_NODE_POS_MEAS11 "136.911"
*CORR_POS_OPT_ATTR "集中法"
*CORR_POS_PARAM_MU ""
*CORR_POS_PARAM_PL ""
*CORR_POS_SEMODEL_TYPE "0"
*CORR_POS_STANDARD_TYPE ""
*CORR_POS_VALUE_ANALYZER "None"
*CORR_POS_VALUE_CMONO "None"
*CORR_POS_VALUE_IMONO "None"
*CORR_POS_VALUE_IS "0.625deg"
*CORR_POS_VALUE_ISL "10.0mm"
*CORR_POS_VALUE_ISOLLER "2.5deg"
*CORR_POS_VALUE_RS1 "13.0mm"
*CORR_POS_VALUE_RS2 "13.0mm"
*CORR_POS_VALUE_RSOLLER "2.5deg"
*CORR_POS_XG_FOCUS_L ""
*CORR_POS_XG_WAVE_TYPE ""
*CORR_POS_XG_WAVE_VALUE ""
*DISP_FMT_X "%.2f"
*DISP_FMT_Y "%.0f"
*DISP_FULLSCALE "35210.0000000000"
*DISP_LINE_COLOR "255.0000000000"
*DISP_LINE_STYLE "0.0000000000"
*DISP_LINE_WIDTH "0.2500000000"
*DISP_NOTE "Collected Data-2"
*DISP_OFFSET_Y "0.0000000000"
*DISP_PEAKSEARCH_UNIT_Y "cps"
*DISP_RANGE_BOTTOM "0.0000000000"
*DISP_RANGE_LEFT "5.0000000000"
*DISP_RANGE_LOGCUTOFF "0.0100000000"
*DISP_RANGE_RIGHT "90.0000000000"
*DISP_RANGE_TOP "35210.0000000000"
*DISP_SCALE_MODE_Y "0.0000000000"
*DISP_TAB_NAME "Theta/2-Theta"
*DISP_TITLE_Y "Intensity"
*DISP_UNIT_Y "cps"
*DISP_WINDOW_NAME "MSG_MACROENGINE"
*FILE_COMMENT " "
*FILE_MD5 ""
*FILE_MEMO " "
*FILE_OPERATOR "SDU_RIGAKU"
*FILE_SAMPLE "TiO2-1-12h_20-02-2019"
*FILE_TYPE "RAS_RAW"
*FILE_USERGROUP "System User"
*FILE_VERSION "1.0000000000"
*HW_ATTACHMENT_ID "ATT1031"
*HW_ATTACHMENT_NAME "6サンプルチェンジャ|ASC-6"
*HW_COUNTER_ID-0 "CUT0025"
*HW_COUNTER_ID-1 "CUT0020"
*HW_COUNTER_ID-2 "CUT0020"
*HW_COUNTER_ID-3 "CMC0021"
*HW_COUNTER_NAME-0 "D/teX Ultra|D/teX Ultra"
*HW_COUNTER_NAME-1 "None|None"
*HW_COUNTER_NAME-2 "None|None"
*HW_COUNTER_NAME-3 "検出器モノクロメータ|Detector monochromator"
*HW_COUNTER_SELECT_NAME "D/teX Ultra|D/teX Ultra"
*HW_GONIOMETER_ID "GON0070"
*HW_GONIOMETER_NAME "MiniFlex 300/600|MiniFlex 300/600"
*HW_GONIOMETER_RADIUS-0 "79.0"
*HW_GONIOMETER_RADIUS-1 "91.5"
*HW_GONIOMETER_RADIUS-2 "150.0"
*HW_GONIOMETER_RADIUS-3 "0"
*HW_GONIOMETER_RADIUS-4 "103.4"
*HW_GONIOMETER_RADIUS-5 "150.0"
*HW_GONIOMETER_RADIUS-6 "46.6"
*HW_GONIOMETER_RADIUS-7 "160.0"
*HW_I_OPT_ID-0 "ISL0021"
*HW_I_OPT_ID-1 "ISO0021"
*HW_I_OPT_NAME-0 "発散スリット|Divergence slit"
*HW_I_OPT_NAME-1 "入射平行スリット|Incident parallel slit"
*HW_R_ATTENUATER_AUTOMODE "0"
*HW_R_OPT_ID-0 "RSS0021"
*HW_R_OPT_ID-1 "RSO0021"
*HW_R_OPT_ID-2 "RRS0021"
*HW_R_OPT_NAME-0 "散乱スリット|Scattering slit"
*HW_R_OPT_NAME-1 "受光平行スリット|Receiving soller slit"
*HW_R_OPT_NAME-2 "受光スリット|Receiving slit"
*HW_SAMPLE_HOLDER_ID "SMP0000"
*HW_SAMPLE_HOLDER_NAME "無し|None"
*HW_XG_CURRENT_MAX "15"
*HW_XG_CURRENT_MIN "2"
*HW_XG_CURRENT_RESOLUTION "1"
*HW_XG_CURRENT_UNIT "mA"
*HW_XG_FOCUS "1mm x 10mm"
*HW_XG_FOCUS_TYPE "Normal"
*HW_XG_ID ""
*HW_XG_NAME "300W/600W 封入管-B|300W/600W Sealed tube-B"
*HW_XG_TARGET_ATOMIC_NUMBER "29.0000000000"
*HW_XG_TARGET_NAME "Cu"
*HW_XG_TYPE "Hermetic"
*HW_XG_VOLTAGE_MAX "40"
*HW_XG_VOLTAGE_MIN "20"
*HW_XG_VOLTAGE_RESOLUTION "1"
*HW_XG_VOLTAGE_UNIT "kV"
*HW_XG_WATT_MAX "1"
*HW_XG_WATT_UNIT "kW"
*HW_XG_WAVE_LENGTH_ALPHA1 "1.540593"
*HW_XG_WAVE_LENGTH_ALPHA2 "1.544414"
*HW_XG_WAVE_LENGTH_BETA "1.392250"
*MEAS_COND_AXIS_NAME-0 "Theta/2-Theta"
*MEAS_COND_AXIS_NAME-1 "Spin"
*MEAS_COND_AXIS_NAME-2 "Change"
*MEAS_COND_AXIS_NAME-3 "Soller(inc.)"
*MEAS_COND_AXIS_NAME-4 "IHS"
*MEAS_COND_AXIS_NAME-5 "DS"
*MEAS_COND_AXIS_NAME-6 "SS"
*MEAS_COND_AXIS_NAME-7 "Soller(rec.)"
*MEAS_COND_AXIS_NAME-8 "RS"
*MEAS_COND_AXIS_NAME-9 "Filter"
*MEAS_COND_AXIS_NAME-10 "Monochromator"
*MEAS_COND_AXIS_NAME-11 "PHA"
*MEAS_COND_AXIS_NAME_INTERNAL-0 "TwoThetaTheta"
*MEAS_COND_AXIS_NAME_INTERNAL-1 "Spin"
*MEAS_COND_AXIS_NAME_INTERNAL-2 "Change"
*MEAS_COND_AXIS_NAME_INTERNAL-3 "IncidentSollerSlit"
*MEAS_COND_AXIS_NAME_INTERNAL-4 "IncidentAxdSlit"
*MEAS_COND_AXIS_NAME_INTERNAL-5 "IncidentSlitBox"
*MEAS_COND_AXIS_NAME_INTERNAL-6 "ReceivingSlitBox1"
*MEAS_COND_AXIS_NAME_INTERNAL-7 "ReceivingSollerSlit"
*MEAS_COND_AXIS_NAME_INTERNAL-8 "ReceivingSlitBox2"
*MEAS_COND_AXIS_NAME_INTERNAL-9 "Filter"
*MEAS_COND_AXIS_NAME_INTERNAL-10 "CounterMonochromator"
*MEAS_COND_AXIS_NAME_INTERNAL-11 "PHA"
*MEAS_COND_AXIS_NAME_MAGICNO-0 "268632064.0000000000"
*MEAS_COND_AXIS_NAME_MAGICNO-1 "16842752.0000000000"
*MEAS_COND_AXIS_NAME_MAGICNO-2 "16842752.0000000000"
*MEAS_COND_AXIS_NAME_MAGICNO-3 "20971521.0000000000"
*MEAS_COND_AXIS_NAME_MAGICNO-4 "22020097.0000000000"
*MEAS_COND_AXIS_NAME_MAGICNO-5 "22020097.0000000000"
*MEAS_COND_AXIS_NAME_MAGICNO-6 "23068673.0000000000"
*MEAS_COND_AXIS_NAME_MAGICNO-7 "20971521.0000000000"
*MEAS_COND_AXIS_NAME_MAGICNO-8 "23068673.0000000000"
*MEAS_COND_AXIS_NAME_MAGICNO-9 "20971521.0000000000"
*MEAS_COND_AXIS_NAME_MAGICNO-10 "20971521.0000000000"
*MEAS_COND_AXIS_NAME_MAGICNO-11 "0.0000000000"
*MEAS_COND_AXIS_OFFSET-0 "0.0000000000"
*MEAS_COND_AXIS_OFFSET-1 "-"
*MEAS_COND_AXIS_OFFSET-2 "-"
*MEAS_COND_AXIS_OFFSET-3 "-"
*MEAS_COND_AXIS_OFFSET-4 "-"
*MEAS_COND_AXIS_OFFSET-5 "-"
*MEAS_COND_AXIS_OFFSET-6 "-"
*MEAS_COND_AXIS_OFFSET-7 "-"
*MEAS_COND_AXIS_OFFSET-8 "-"
*MEAS_COND_AXIS_OFFSET-9 "-"
*MEAS_COND_AXIS_OFFSET-10 "-"
*MEAS_COND_AXIS_OFFSET-11 "-"
*MEAS_COND_AXIS_POSITION-0 "92.5100000000"
*MEAS_COND_AXIS_POSITION-1 "0.0000000000"
*MEAS_COND_AXIS_POSITION-2 "4.0000000000"
*MEAS_COND_AXIS_POSITION-3 "2.5deg"
*MEAS_COND_AXIS_POSITION-4 "10.0mm"
*MEAS_COND_AXIS_POSITION-5 "0.625deg"
*MEAS_COND_AXIS_POSITION-6 "13.0mm"
*MEAS_COND_AXIS_POSITION-7 "2.5deg"
*MEAS_COND_AXIS_POSITION-8 "13.0mm"
*MEAS_COND_AXIS_POSITION-9 "K-beta(x1)"
*MEAS_COND_AXIS_POSITION-10 "None"
*MEAS_COND_AXIS_POSITION-11 "42.0000000000"
*MEAS_COND_AXIS_UNIT-0 "deg"
*MEAS_COND_AXIS_UNIT-1 ""
*MEAS_COND_AXIS_UNIT-2 ""
*MEAS_COND_AXIS_UNIT-3 ""
*MEAS_COND_AXIS_UNIT-4 ""
*MEAS_COND_AXIS_UNIT-5 ""
*MEAS_COND_AXIS_UNIT-6 ""
*MEAS_COND_AXIS_UNIT-7 ""
*MEAS_COND_AXIS_UNIT-8 ""
*MEAS_COND_AXIS_UNIT-9 ""
*MEAS_COND_AXIS_UNIT-10 ""
*MEAS_COND_AXIS_UNIT-11 "div"
*MEAS_COND_CORRECTION_SLIT_COUNTERMONO "None"
*MEAS_COND_CORRECTION_SLIT_DS "0.625deg"
*MEAS_COND_CORRECTION_SLIT_FILTER "None"
*MEAS_COND_CORRECTION_SLIT_IHS "10.0mm"
*MEAS_COND_CORRECTION_SLIT_RS "13.0mm"
*MEAS_COND_CORRECTION_SLIT_SOLLER_INC "2.5deg"
*MEAS_COND_CORRECTION_SLIT_SOLLER_REC "2.5deg"
*MEAS_COND_CORRECTION_SLIT_SS "13.0mm"
*MEAS_COND_COUNTER_CNTLOSS_CORR "0.0000000000"
*MEAS_COND_COUNTER_PHABASE "42.0000000000"
*MEAS_COND_COUNTER_PHAWINDOW "15.0000000000"
*MEAS_COND_COUNTER_PHA_UNIT "div"
*MEAS_COND_COUNTER_TAUDIFF "0.2500000000"
*MEAS_COND_COUNTER_TAUINT "0.7500000000"
*MEAS_COND_IRRADIATION_MODE "OFF"
*MEAS_COND_IRRADIATION_WIDTH ""
*MEAS_COND_OPT_ATTR " "
*MEAS_COND_OPT_NAME ""
*MEAS_COND_UNSYMMETRIC_MODE "OFF"
*MEAS_COND_XG_CURRENT "15.0000000000"
*MEAS_COND_XG_VOLTAGE "40.0000000000"
*MEAS_COND_XG_WAVE_TYPE "Ka"
*MEAS_DATA_COUNT "4251.0000000000"
*MEAS_SCAN_AXIS_X "Theta/2-Theta"
*MEAS_SCAN_AXIS_X_INTERNAL "TwoThetaTheta"
*MEAS_SCAN_END_TIME "02/20/19 11:35:32"
*MEAS_SCAN_MODE "CONTINUOUS"
*MEAS_SCAN_MONITOR "0"
*MEAS_SCAN_RESOLUTION_X "0.005"
*MEAS_SCAN_SPEED "5.000"
*MEAS_SCAN_SPEED_UNIT "deg/min"
*MEAS_SCAN_START "5.0000000000"
*MEAS_SCAN_START_TIME "02/20/19 11:17:06"
*MEAS_SCAN_STEP "0.0200000000"
*MEAS_SCAN_STOP "90.0000000000"
*MEAS_SCAN_UNIT_X "deg"
*MEAS_SCAN_UNIT_Y "counts"
*SLIT_SYSTEM "0"
*RAS_HEADER_END
*RAS_INT_START
5.000 583.000 1.000
5.020 599.000 1.000
5.040 604.000 1.000
5.060 572.000 1.000
5.080 551.000 1.000
5.100 562.000 1.000
5.120 602.000 1.000
5.140 589.000 1.000
5.160 546.000 1.000
5.180 543.000 1.000
5.200 553.000 1.000
5.220 508.000 1.000
5.240 495.000 1.000
5.260 517.000 1.000
5.280 534.000 1.000
5.300 530.000 1.000
5.320 518.000 1.000
5.340 484.000 1.000
5.360 493.000 1.000
5.380 508.000 1.000
5.400 522.000 1.000
5.420 494.000 1.000
5.440 472.000 1.000
5.460 462.000 1.000
5.480 472.000 1.000
5.500 497.000 1.000
5.520 511.000 1.000
5.540 479.000 1.000
5.560 474.000 1.000
5.580 474.000 1.000
5.600 482.000 1.000
5.620 475.000 1.000
5.640 470.000 1.000
5.660 467.000 1.000
5.680 434.000 1.000
5.700 431.000 1.000
5.720 459.000 1.000
5.740 459.000 1.000
5.760 449.000 1.000
5.780 456.000 1.000
5.800 446.000 1.000
5.820 425.000 1.000
5.840 400.000 1.000
5.860 425.000 1.000
5.880 445.000 1.000
5.900 437.000 1.000
5.920 396.000 1.000
5.940 393.000 1.000
5.960 429.000 1.000
5.980 431.000 1.000
6.000 419.000 1.000
6.020 411.000 1.000
6.040 410.000 1.000
6.060 428.000 1.000
6.080 430.000 1.000
6.100 396.000 1.000
6.120 377.000 1.000
6.140 405.000 1.000
6.160 380.000 1.000
6.180 355.000 1.000
6.200 367.000 1.000
6.220 386.000 1.000
6.240 371.000 1.000
6.260 392.000 1.000
6.280 382.000 1.000
6.300 379.000 1.000
6.320 363.000 1.000
6.340 381.000 1.000
6.360 367.000 1.000
6.380 372.000 1.000
6.400 413.000 1.000
6.420 390.000 1.000
6.440 373.000 1.000
6.460 366.000 1.000
6.480 373.000 1.000
6.500 404.000 1.000
6.520 372.000 1.000
6.540 361.000 1.000
6.560 359.000 1.000
6.580 362.000 1.000
6.600 348.000 1.000
6.620 333.000 1.000
6.640 329.000 1.000
6.660 321.000 1.000
6.680 338.000 1.000
6.700 348.000 1.000
6.720 347.000 1.000
6.740 331.000 1.000
6.760 343.000 1.000
6.780 351.000 1.000
6.800 335.000 1.000
6.820 327.000 1.000
6.840 344.000 1.000
6.860 344.000 1.000
6.880 343.000 1.000
6.900 323.000 1.000
6.920 321.000 1.000
6.940 339.000 1.000
6.960 333.000 1.000
6.980 313.000 1.000
7.000 300.000 1.000
7.020 322.000 1.000
7.040 332.000 1.000
7.060 333.000 1.000
7.080 332.000 1.000
7.100 324.000 1.000
7.120 315.000 1.000
7.140 336.000 1.000
7.160 335.000 1.000
7.180 337.000 1.000
7.200 349.000 1.000
7.220 326.000 1.000
7.240 332.000 1.000
7.260 351.000 1.000
7.280 331.000 1.000
7.300 298.000 1.000
7.320 313.000 1.000
7.340 324.000 1.000
7.360 317.000 1.000
7.380 296.000 1.000
7.400 290.000 1.000
7.420 308.000 1.000
7.440 308.000 1.000
7.460 307.000 1.000
7.480 310.000 1.000
7.500 308.000 1.000
7.520 320.000 1.000
7.540 317.000 1.000
7.560 309.000 1.000
7.580 311.000 1.000
7.600 311.000 1.000
7.620 311.000 1.000
7.640 295.000 1.000
7.660 307.000 1.000
7.680 302.000 1.000
7.700 300.000 1.000
7.720 294.000 1.000
7.740 304.000 1.000
7.760 302.000 1.000
7.780 303.000 1.000
7.800 293.000 1.000
7.820 275.000 1.000
7.840 278.000 1.000
7.860 305.000 1.000
7.880 312.000 1.000
7.900 317.000 1.000
7.920 298.000 1.000
7.940 285.000 1.000
7.960 309.000 1.000
7.980 327.000 1.000
8.000 313.000 1.000
8.020 303.000 1.000
8.040 297.000 1.000
8.060 282.000 1.000
8.080 284.000 1.000
8.100 284.000 1.000
8.120 299.000 1.000
8.140 308.000 1.000
8.160 298.000 1.000
8.180 289.000 1.000
8.200 294.000 1.000
8.220 290.000 1.000
8.240 296.000 1.000
8.260 305.000 1.000
8.280 298.000 1.000
8.300 304.000 1.000
8.320 293.000 1.000
8.340 280.000 1.000
8.360 311.000 1.000
8.380 331.000 1.000
8.400 299.000 1.000
8.420 271.000 1.000
8.440 272.000 1.000
8.460 273.000 1.000
8.480 294.000 1.000
8.500 293.000 1.000
8.520 288.000 1.000
8.540 277.000 1.000
8.560 276.000 1.000
8.580 283.000 1.000
8.600 270.000 1.000
8.620 280.000 1.000
8.640 288.000 1.000
8.660 277.000 1.000
8.680 270.000 1.000
8.700 274.000 1.000
8.720 270.000 1.000
8.740 255.000 1.000
8.760 263.000 1.000
8.780 289.000 1.000
8.800 289.000 1.000
8.820 283.000 1.000
8.840 270.000 1.000
8.860 273.000 1.000
8.880 271.000 1.000
8.900 266.000 1.000
8.920 265.000 1.000
8.940 247.000 1.000
8.960 250.000 1.000
8.980 262.000 1.000
9.000 269.000 1.000
9.020 259.000 1.000
9.040 273.000 1.000
9.060 273.000 1.000
9.080 262.000 1.000
9.100 269.000 1.000
9.120 268.000 1.000
9.140 260.000 1.000
9.160 267.000 1.000
9.180 275.000 1.000
9.200 279.000 1.000
9.220 275.000 1.000
9.240 276.000 1.000
9.260 268.000 1.000
9.280 271.000 1.000
9.300 256.000 1.000
9.320 254.000 1.000
9.340 262.000 1.000
9.360 272.000 1.000
9.380 277.000 1.000
9.400 267.000 1.000
9.420 257.000 1.000
9.440 256.000 1.000
9.460 249.000 1.000
9.480 263.000 1.000
9.500 260.000 1.000
9.520 263.000 1.000
9.540 276.000 1.000
9.560 262.000 1.000
9.580 252.000 1.000
9.600 259.000 1.000
9.620 256.000 1.000
9.640 256.000 1.000
9.660 259.000 1.000
9.680 246.000 1.000
9.700 250.000 1.000
9.720 271.000 1.000
9.740 269.000 1.000
9.760 257.000 1.000
9.780 257.000 1.000
9.800 264.000 1.000
9.820 261.000 1.000
9.840 258.000 1.000
9.860 264.000 1.000
9.880 262.000 1.000
9.900 260.000 1.000
9.920 274.000 1.000
9.940 266.000 1.000
9.960 260.000 1.000
9.980 241.000 1.000
10.000 251.000 1.000
10.020 275.000 1.000
10.040 261.000 1.000
10.060 240.000 1.000
10.080 234.000 1.000
10.100 259.000 1.000
10.120 274.000 1.000
10.140 263.000 1.000
10.160 241.000 1.000
10.180 238.000 1.000
10.200 251.000 1.000
10.220 259.000 1.000
10.240 267.000 1.000
10.260 260.000 1.000
10.280 250.000 1.000
10.300 256.000 1.000
10.320 261.000 1.000
10.340 254.000 1.000
10.360 237.000 1.000
10.380 241.000 1.000
10.400 243.000 1.000
10.420 250.000 1.000
10.440 251.000 1.000
10.460 235.000 1.000
10.480 236.000 1.000
10.500 248.000 1.000
10.520 253.000 1.000
10.540 250.000 1.000
10.560 249.000 1.000
10.580 247.000 1.000
10.600 248.000 1.000
10.620 252.000 1.000
10.640 258.000 1.000
10.660 263.000 1.000
10.680 270.000 1.000
10.700 270.000 1.000
10.720 251.000 1.000
10.740 244.000 1.000
10.760 251.000 1.000
10.780 261.000 1.000
10.800 265.000 1.000
10.820 263.000 1.000
10.840 265.000 1.000
10.860 270.000 1.000
10.880 272.000 1.000
10.900 254.000 1.000
10.920 260.000 1.000
10.940 266.000 1.000
10.960 253.000 1.000
10.980 265.000 1.000
11.000 268.000 1.000
11.020 256.000 1.000
11.040 253.000 1.000
11.060 264.000 1.000
11.080 267.000 1.000
11.100 260.000 1.000
11.120 259.000 1.000
11.140 249.000 1.000
11.160 239.000 1.000
11.180 255.000 1.000
11.200 262.000 1.000
11.220 278.000 1.000
11.240 283.000 1.000
11.260 255.000 1.000
11.280 254.000 1.000
11.300 254.000 1.000
11.320 248.000 1.000
11.340 265.000 1.000
11.360 251.000 1.000
11.380 247.000 1.000
11.400 259.000 1.000
11.420 255.000 1.000
11.440 250.000 1.000
11.460 252.000 1.000
11.480 257.000 1.000
11.500 254.000 1.000
11.520 244.000 1.000
11.540 242.000 1.000
11.560 247.000 1.000
11.580 237.000 1.000
11.600 228.000 1.000
11.620 237.000 1.000
11.640 246.000 1.000
11.660 253.000 1.000
11.680 252.000 1.000
11.700 255.000 1.000
11.720 264.000 1.000
11.740 255.000 1.000
11.760 254.000 1.000
11.780 260.000 1.000
11.800 253.000 1.000
11.820 244.000 1.000
11.840 244.000 1.000
11.860 258.000 1.000
11.880 260.000 1.000
11.900 260.000 1.000
11.920 259.000 1.000
11.940 246.000 1.000
11.960 244.000 1.000
11.980 250.000 1.000
12.000 249.000 1.000
12.020 245.000 1.000
12.040 244.000 1.000
12.060 250.000 1.000
12.080 263.000 1.000
12.100 251.000 1.000
12.120 236.000 1.000
12.140 248.000 1.000
12.160 261.000 1.000
12.180 251.000 1.000
12.200 244.000 1.000
12.220 250.000 1.000
12.240 251.000 1.000
12.260 243.000 1.000
12.280 250.000 1.000
12.300 259.000 1.000
12.320 247.000 1.000
12.340 238.000 1.000
12.360 238.000 1.000
12.380 243.000 1.000
12.400 234.000 1.000
12.420 238.000 1.000
12.440 239.000 1.000
12.460 238.000 1.000
12.480 250.000 1.000
12.500 255.000 1.000
12.520 268.000 1.000
12.540 259.000 1.000
12.560 240.000 1.000
12.580 239.000 1.000
12.600 243.000 1.000
12.620 244.000 1.000
12.640 247.000 1.000
12.660 238.000 1.000
12.680 243.000 1.000
12.700 250.000 1.000
12.720 241.000 1.000
12.740 233.000 1.000
12.760 224.000 1.000
12.780 229.000 1.000
12.800 238.000 1.000
12.820 243.000 1.000
12.840 244.000 1.000
12.860 247.000 1.000
12.880 243.000 1.000
12.900 237.000 1.000
12.920 236.000 1.000
12.940 249.000 1.000
12.960 258.000 1.000
12.980 262.000 1.000
13.000 252.000 1.000
13.020 232.000 1.000
13.040 232.000 1.000
13.060 235.000 1.000
13.080 230.000 1.000
13.100 234.000 1.000
13.120 250.000 1.000
13.140 250.000 1.000
13.160 247.000 1.000
13.180 253.000 1.000
13.200 252.000 1.000
13.220 243.000 1.000
13.240 239.000 1.000
13.260 244.000 1.000
13.280 242.000 1.000
13.300 225.000 1.000
13.320 222.000 1.000
13.340 232.000 1.000
13.360 228.000 1.000
13.380 230.000 1.000
13.400 226.000 1.000
13.420 228.000 1.000
13.440 224.000 1.000
13.460 214.000 1.000
13.480 215.000 1.000
13.500 219.000 1.000
13.520 227.000 1.000
13.540 237.000 1.000
13.560 231.000 1.000
13.580 212.000 1.000
13.600 214.000 1.000
13.620 216.000 1.000
13.640 226.000 1.000
13.660 243.000 1.000
13.680 223.000 1.000
13.700 206.000 1.000
13.720 220.000 1.000
13.740 232.000 1.000
13.760 233.000 1.000
13.780 225.000 1.000
13.800 230.000 1.000
13.820 241.000 1.000
13.840 240.000 1.000
13.860 254.000 1.000
13.880 258.000 1.000
13.900 245.000 1.000
13.920 229.000 1.000
13.940 215.000 1.000
13.960 225.000 1.000
13.980 231.000 1.000
14.000 225.000 1.000
14.020 223.000 1.000
14.040 231.000 1.000
14.060 245.000 1.000
14.080 245.000 1.000
14.100 232.000 1.000
14.120 217.000 1.000
14.140 230.000 1.000
14.160 246.000 1.000
14.180 238.000 1.000
14.200 228.000 1.000
14.220 220.000 1.000
14.240 219.000 1.000
14.260 223.000 1.000
14.280 219.000 1.000
14.300 232.000 1.000
14.320 229.000 1.000
14.340 222.000 1.000
14.360 238.000 1.000
14.380 241.000 1.000
14.400 231.000 1.000
14.420 219.000 1.000
14.440 225.000 1.000
14.460 227.000 1.000
14.480 238.000 1.000
14.500 241.000 1.000
14.520 219.000 1.000
14.540 214.000 1.000
14.560 224.000 1.000
14.580 220.000 1.000
14.600 221.000 1.000
14.620 228.000 1.000
14.640 229.000 1.000
14.660 217.000 1.000
14.680 202.000 1.000
14.700 214.000 1.000
14.720 225.000 1.000
14.740 226.000 1.000
14.760 228.000 1.000
14.780 226.000 1.000
14.800 217.000 1.000
14.820 211.000 1.000
14.840 222.000 1.000
14.860 225.000 1.000
14.880 216.000 1.000
14.900 218.000 1.000
14.920 212.000 1.000
14.940 211.000 1.000
14.960 234.000 1.000
14.980 237.000 1.000
15.000 226.000 1.000
15.020 224.000 1.000
15.040 224.000 1.000
15.060 221.000 1.000
15.080 212.000 1.000
15.100 203.000 1.000
15.120 199.000 1.000
15.140 202.000 1.000
15.160 202.000 1.000
15.180 209.000 1.000
15.200 223.000 1.000
15.220 224.000 1.000
15.240 225.000 1.000
15.260 224.000 1.000
15.280 226.000 1.000
15.300 224.000 1.000
15.320 225.000 1.000
15.340 227.000 1.000
15.360 218.000 1.000
15.380 215.000 1.000
15.400 222.000 1.000
15.420 214.000 1.000
15.440 198.000 1.000
15.460 213.000 1.000
15.480 215.000 1.000
15.500 220.000 1.000
15.520 236.000 1.000
15.540 231.000 1.000
15.560 234.000 1.000
15.580 233.000 1.000
15.600 221.000 1.000
15.620 209.000 1.000
15.640 202.000 1.000
15.660 207.000 1.000
15.680 229.000 1.000
15.700 230.000 1.000
15.720 211.000 1.000
15.740 197.000 1.000
15.760 203.000 1.000
15.780 214.000 1.000
15.800 201.000 1.000
15.820 197.000 1.000
15.840 211.000 1.000
15.860 219.000 1.000
15.880 227.000 1.000
15.900 225.000 1.000
15.920 226.000 1.000
15.940 218.000 1.000
15.960 206.000 1.000
15.980 216.000 1.000
16.000 223.000 1.000
16.020 215.000 1.000
16.040 200.000 1.000
