*RAS_DATA_START
*RAS_HEADER_START
*CORR_POS_DB_NAME "correction_file_020419"
*CORR_POS_GONIO_RADIUS ""
*CORR_POS_NODE_INDEX01 ""
*CORR_POS_NODE_INDEX02 ""
*CORR_POS_NODE_INDEX03 ""
*CORR_POS_NODE_INDEX04 ""
*CORR_POS_NODE_INDEX05 ""
*CORR_POS_NODE_INDEX06 ""
*CORR_POS_NODE_INDEX07 ""
*CORR_POS_NODE_INDEX08 ""
*CORR_POS_NODE_INDEX09 ""
*CORR_POS_NODE_INDEX10 ""
*CORR_POS_NODE_INDEX11 ""
*CORR_POS_NODE_LABEL01 "Si(111)"
*CORR_POS_NODE_LABEL02 "Si(220)"
*CORR_POS_NODE_LABEL03 "Si(311)"
*CORR_POS_NODE_LABEL04 "Si(400)"
*CORR_POS_NODE_LABEL05 "Si(331)"
*CORR_POS_NODE_LABEL06 "Si(422)"
*CORR_POS_NODE_LABEL07 "Si(511)"
*CORR_POS_NODE_LABEL08 "Si(440)"
*CORR_POS_NODE_LABEL09 "Si(531)"
*CORR_POS_NODE_LABEL10 "Si(620)"
*CORR_POS_NODE_LABEL11 "Si(533)"
*CORR_POS_NODE_POS_CALC01 "28.4137"
*CORR_POS_NODE_POS_CALC02 "47.2707"
*CORR_POS_NODE_POS_CALC03 "56.0883"
*CORR_POS_NODE_POS_CALC04 "69.0934"
*CORR_POS_NODE_POS_CALC05 "76.3385"
*CORR_POS_NODE_POS_CALC06 "87.9915"
*CORR_POS_NODE_POS_CALC07 "94.9137"
*CORR_POS_NODE_POS_CALC08 "106.67"
*CORR_POS_NODE_POS_CALC09 "114.054"
*CORR_POS_NODE_POS_CALC10 "127.508"
*CORR_POS_NODE_POS_CALC11 "136.858"
*CORR_POS_NODE_POS_MEAS01 "28.463"
*CORR_POS_NODE_POS_MEAS02 "47.3124"
*CORR_POS_NODE_POS_MEAS03 "56.1276"
*CORR_POS_NODE_POS_MEAS04 "69.1418"
*CORR_POS_NODE_POS_MEAS05 "76.3865"
*CORR_POS_NODE_POS_MEAS06 "88.0411"
*CORR_POS_NODE_POS_MEAS07 "94.9598"
*CORR_POS_NODE_POS_MEAS08 "106.713"
*CORR_POS_NODE_POS_MEAS09 "114.102"
*CORR_POS_NODE_POS_MEAS10 "127.558"
*CORR_POS_NODE_POS_MEAS11 "136.911"
*CORR_POS_OPT_ATTR "集中法"
*CORR_POS_PARAM_MU ""
*CORR_POS_PARAM_PL ""
*CORR_POS_SEMODEL_TYPE "0"
*CORR_POS_STANDARD_TYPE ""
*CORR_POS_VALUE_ANALYZER "None"
*CORR_POS_VALUE_CMONO "None"
*CORR_POS_VALUE_IMONO "None"
*CORR_POS_VALUE_IS "0.625deg"
*CORR_POS_VALUE_ISL "10.0mm"
*CORR_POS_VALUE_ISOLLER "2.5deg"
*CORR_POS_VALUE_RS1 "13.0mm"
*CORR_POS_VALUE_RS2 "13.0mm"
*CORR_POS_VALUE_RSOLLER "2.5deg"
*CORR_POS_XG_FOCUS_L ""
*CORR_POS_XG_WAVE_TYPE ""
*CORR_POS_XG_WAVE_VALUE ""
*DISP_FMT_X "%.2f"
*DISP_FMT_Y "%.0f"
*DISP_FULLSCALE "17390.0000000000"
*DISP_LINE_COLOR "255.0000000000"
*DISP_LINE_STYLE "0.0000000000"
*DISP_LINE_WIDTH "0.2500000000"
*DISP_NOTE "Collected Data-1"
*DISP_OFFSET_Y "0.0000000000"
*DISP_PEAKSEARCH_UNIT_Y "cps"
*DISP_RANGE_BOTTOM "0.0000000000"
*DISP_RANGE_LEFT "5.0000000000"
*DISP_RANGE_LOGCUTOFF "0.0100000000"
*DISP_RANGE_RIGHT "90.0000000000"
*DISP_RANGE_TOP "17390.0000000000"
*DISP_SCALE_MODE_Y "0.0000000000"
*DISP_TAB_NAME "Theta/2-Theta"
*DISP_TITLE_Y "Intensity"
*DISP_UNIT_Y "cps"
*DISP_WINDOW_NAME "MSG_MACROENGINE"
*FILE_COMMENT " "
*FILE_MD5 ""
*FILE_MEMO " "
*FILE_OPERATOR "SDU_RIGAKU"
*FILE_SAMPLE "TiO2-3-3h-BET"
*FILE_TYPE "RAS_RAW"
*FILE_USERGROUP "System User"
*FILE_VERSION "1.0000000000"
*HW_ATTACHMENT_ID "ATT1031"
*HW_ATTACHMENT_NAME "6サンプルチェンジャ|ASC-6"
*HW_COUNTER_ID-0 "CUT0025"
*HW_COUNTER_ID-1 "CUT0020"
*HW_COUNTER_ID-2 "CUT0020"
*HW_COUNTER_ID-3 "CMC0021"
*HW_COUNTER_NAME-0 "D/teX Ultra|D/teX Ultra"
*HW_COUNTER_NAME-1 "None|None"
*HW_COUNTER_NAME-2 "None|None"
*HW_COUNTER_NAME-3 "検出器モノクロメータ|Detector monochromator"
*HW_COUNTER_SELECT_NAME "D/teX Ultra|D/teX Ultra"
*HW_GONIOMETER_ID "GON0070"
*HW_GONIOMETER_NAME "MiniFlex 300/600|MiniFlex 300/600"
*HW_GONIOMETER_RADIUS-0 "79.0"
*HW_GONIOMETER_RADIUS-1 "91.5"
*HW_GONIOMETER_RADIUS-2 "150.0"
*HW_GONIOMETER_RADIUS-3 "0"
*HW_GONIOMETER_RADIUS-4 "103.4"
*HW_GONIOMETER_RADIUS-5 "150.0"
*HW_GONIOMETER_RADIUS-6 "46.6"
*HW_GONIOMETER_RADIUS-7 "160.0"
*HW_I_OPT_ID-0 "ISL0021"
*HW_I_OPT_ID-1 "ISO0021"
*HW_I_OPT_NAME-0 "発散スリット|Divergence slit"
*HW_I_OPT_NAME-1 "入射平行スリット|Incident parallel slit"
*HW_R_ATTENUATER_AUTOMODE "0"
*HW_R_OPT_ID-0 "RSS0021"
*HW_R_OPT_ID-1 "RSO0021"
*HW_R_OPT_ID-2 "RRS0021"
*HW_R_OPT_NAME-0 "散乱スリット|Scattering slit"
*HW_R_OPT_NAME-1 "受光平行スリット|Receiving soller slit"
*HW_R_OPT_NAME-2 "受光スリット|Receiving slit"
*HW_SAMPLE_HOLDER_ID "SMP0000"
*HW_SAMPLE_HOLDER_NAME "無し|None"
*HW_XG_CURRENT_MAX "15"
*HW_XG_CURRENT_MIN "2"
*HW_XG_CURRENT_RESOLUTION "1"
*HW_XG_CURRENT_UNIT "mA"
*HW_XG_FOCUS "1mm x 10mm"
*HW_XG_FOCUS_TYPE "Normal"
*HW_XG_ID ""
*HW_XG_NAME "300W/600W 封入管-B|300W/600W Sealed tube-B"
*HW_XG_TARGET_ATOMIC_NUMBER "29.0000000000"
*HW_XG_TARGET_NAME "Cu"
*HW_XG_TYPE "Hermetic"
*HW_XG_VOLTAGE_MAX "40"
*HW_XG_VOLTAGE_MIN "20"
*HW_XG_VOLTAGE_RESOLUTION "1"
*HW_XG_VOLTAGE_UNIT "kV"
*HW_XG_WATT_MAX "1"
*HW_XG_WATT_UNIT "kW"
*HW_XG_WAVE_LENGTH_ALPHA1 "1.540593"
*HW_XG_WAVE_LENGTH_ALPHA2 "1.544414"
*HW_XG_WAVE_LENGTH_BETA "1.392250"
*MEAS_COND_AXIS_NAME-0 "Theta/2-Theta"
*MEAS_COND_AXIS_NAME-1 "Spin"
*MEAS_COND_AXIS_NAME-2 "Change"
*MEAS_COND_AXIS_NAME-3 "Soller(inc.)"
*MEAS_COND_AXIS_NAME-4 "IHS"
*MEAS_COND_AXIS_NAME-5 "DS"
*MEAS_COND_AXIS_NAME-6 "SS"
*MEAS_COND_AXIS_NAME-7 "Soller(rec.)"
*MEAS_COND_AXIS_NAME-8 "RS"
*MEAS_COND_AXIS_NAME-9 "Filter"
*MEAS_COND_AXIS_NAME-10 "Monochromator"
*MEAS_COND_AXIS_NAME-11 "PHA"
*MEAS_COND_AXIS_NAME_INTERNAL-0 "TwoThetaTheta"
*MEAS_COND_AXIS_NAME_INTERNAL-1 "Spin"
*MEAS_COND_AXIS_NAME_INTERNAL-2 "Change"
*MEAS_COND_AXIS_NAME_INTERNAL-3 "IncidentSollerSlit"
*MEAS_COND_AXIS_NAME_INTERNAL-4 "IncidentAxdSlit"
*MEAS_COND_AXIS_NAME_INTERNAL-5 "IncidentSlitBox"
*MEAS_COND_AXIS_NAME_INTERNAL-6 "ReceivingSlitBox1"
*MEAS_COND_AXIS_NAME_INTERNAL-7 "ReceivingSollerSlit"
*MEAS_COND_AXIS_NAME_INTERNAL-8 "ReceivingSlitBox2"
*MEAS_COND_AXIS_NAME_INTERNAL-9 "Filter"
*MEAS_COND_AXIS_NAME_INTERNAL-10 "CounterMonochromator"
*MEAS_COND_AXIS_NAME_INTERNAL-11 "PHA"
*MEAS_COND_AXIS_NAME_MAGICNO-0 "268632064.0000000000"
*MEAS_COND_AXIS_NAME_MAGICNO-1 "16842752.0000000000"
*MEAS_COND_AXIS_NAME_MAGICNO-2 "16842752.0000000000"
*MEAS_COND_AXIS_NAME_MAGICNO-3 "20971521.0000000000"
*MEAS_COND_AXIS_NAME_MAGICNO-4 "22020097.0000000000"
*MEAS_COND_AXIS_NAME_MAGICNO-5 "22020097.0000000000"
*MEAS_COND_AXIS_NAME_MAGICNO-6 "23068673.0000000000"
*MEAS_COND_AXIS_NAME_MAGICNO-7 "20971521.0000000000"
*MEAS_COND_AXIS_NAME_MAGICNO-8 "23068673.0000000000"
*MEAS_COND_AXIS_NAME_MAGICNO-9 "20971521.0000000000"
*MEAS_COND_AXIS_NAME_MAGICNO-10 "20971521.0000000000"
*MEAS_COND_AXIS_NAME_MAGICNO-11 "0.0000000000"
*MEAS_COND_AXIS_OFFSET-0 "0.0000000000"
*MEAS_COND_AXIS_OFFSET-1 "-"
*MEAS_COND_AXIS_OFFSET-2 "-"
*MEAS_COND_AXIS_OFFSET-3 "-"
*MEAS_COND_AXIS_OFFSET-4 "-"
*MEAS_COND_AXIS_OFFSET-5 "-"
*MEAS_COND_AXIS_OFFSET-6 "-"
*MEAS_COND_AXIS_OFFSET-7 "-"
*MEAS_COND_AXIS_OFFSET-8 "-"
*MEAS_COND_AXIS_OFFSET-9 "-"
*MEAS_COND_AXIS_OFFSET-10 "-"
*MEAS_COND_AXIS_OFFSET-11 "-"
*MEAS_COND_AXIS_POSITION-0 "10.0000000000"
*MEAS_COND_AXIS_POSITION-1 "0.0000000000"
*MEAS_COND_AXIS_POSITION-2 "3.0000000000"
*MEAS_COND_AXIS_POSITION-3 "2.5deg"
*MEAS_COND_AXIS_POSITION-4 "10.0mm"
*MEAS_COND_AXIS_POSITION-5 "0.625deg"
*MEAS_COND_AXIS_POSITION-6 "13.0mm"
*MEAS_COND_AXIS_POSITION-7 "2.5deg"
*MEAS_COND_AXIS_POSITION-8 "13.0mm"
*MEAS_COND_AXIS_POSITION-9 "K-beta(x1)"
*MEAS_COND_AXIS_POSITION-10 "None"
*MEAS_COND_AXIS_POSITION-11 "42.0000000000"
*MEAS_COND_AXIS_UNIT-0 "deg"
*MEAS_COND_AXIS_UNIT-1 ""
*MEAS_COND_AXIS_UNIT-2 ""
*MEAS_COND_AXIS_UNIT-3 ""
*MEAS_COND_AXIS_UNIT-4 ""
*MEAS_COND_AXIS_UNIT-5 ""
*MEAS_COND_AXIS_UNIT-6 ""
*MEAS_COND_AXIS_UNIT-7 ""
*MEAS_COND_AXIS_UNIT-8 ""
*MEAS_COND_AXIS_UNIT-9 ""
*MEAS_COND_AXIS_UNIT-10 ""
*MEAS_COND_AXIS_UNIT-11 "div"
*MEAS_COND_CORRECTION_SLIT_COUNTERMONO "None"
*MEAS_COND_CORRECTION_SLIT_DS "0.625deg"
*MEAS_COND_CORRECTION_SLIT_FILTER "None"
*MEAS_COND_CORRECTION_SLIT_IHS "10.0mm"
*MEAS_COND_CORRECTION_SLIT_RS "13.0mm"
*MEAS_COND_CORRECTION_SLIT_SOLLER_INC "2.5deg"
*MEAS_COND_CORRECTION_SLIT_SOLLER_REC "2.5deg"
*MEAS_COND_CORRECTION_SLIT_SS "13.0mm"
*MEAS_COND_COUNTER_CNTLOSS_CORR "0.0000000000"
*MEAS_COND_COUNTER_PHABASE "42.0000000000"
*MEAS_COND_COUNTER_PHAWINDOW "15.0000000000"
*MEAS_COND_COUNTER_PHA_UNIT "div"
*MEAS_COND_COUNTER_TAUDIFF "0.2500000000"
*MEAS_COND_COUNTER_TAUINT "0.7500000000"
*MEAS_COND_IRRADIATION_MODE "OFF"
*MEAS_COND_IRRADIATION_WIDTH ""
*MEAS_COND_OPT_ATTR " "
*MEAS_COND_OPT_NAME ""
*MEAS_COND_UNSYMMETRIC_MODE "OFF"
*MEAS_COND_XG_CURRENT "15.0000000000"
*MEAS_COND_XG_VOLTAGE "40.0000000000"
*MEAS_COND_XG_WAVE_TYPE "Ka"
*MEAS_DATA_COUNT "4251.0000000000"
*MEAS_SCAN_AXIS_X "Theta/2-Theta"
*MEAS_SCAN_AXIS_X_INTERNAL "TwoThetaTheta"
*MEAS_SCAN_END_TIME "04/16/19 11:52:37"
*MEAS_SCAN_MODE "CONTINUOUS"
*MEAS_SCAN_MONITOR "0"
*MEAS_SCAN_RESOLUTION_X "0.005"
*MEAS_SCAN_SPEED "10.000"
*MEAS_SCAN_SPEED_UNIT "deg/min"
*MEAS_SCAN_START "5.0000000000"
*MEAS_SCAN_START_TIME "04/16/19 11:43:21"
*MEAS_SCAN_STEP "0.0200000000"
*MEAS_SCAN_STOP "90.0000000000"
*MEAS_SCAN_UNIT_X "deg"
*MEAS_SCAN_UNIT_Y "counts"
*SLIT_SYSTEM "0"
*RAS_HEADER_END
*RAS_INT_START
5.000 527.000 1.000
5.020 530.000 1.000
5.040 524.000 1.000
5.060 524.000 1.000
5.080 504.000 1.000
5.100 555.000 1.000
5.120 584.000 1.000
5.140 492.000 1.000
5.160 441.000 1.000
5.180 476.000 1.000
5.200 479.000 1.000
5.220 458.000 1.000
5.240 483.000 1.000
5.260 488.000 1.000
5.280 469.000 1.000
5.300 439.000 1.000
5.320 456.000 1.000
5.340 472.000 1.000
5.360 451.000 1.000
5.380 463.000 1.000
5.400 427.000 1.000
5.420 396.000 1.000
5.440 403.000 1.000
5.460 451.000 1.000
5.480 441.000 1.000
5.500 440.000 1.000
5.520 433.000 1.000
5.540 388.000 1.000
5.560 400.000 1.000
5.580 435.000 1.000
5.600 414.000 1.000
5.620 394.000 1.000
5.640 430.000 1.000
5.660 412.000 1.000
5.680 378.000 1.000
5.700 380.000 1.000
5.720 393.000 1.000
5.740 392.000 1.000
5.760 381.000 1.000
5.780 355.000 1.000
5.800 373.000 1.000
5.820 361.000 1.000
5.840 336.000 1.000
5.860 319.000 1.000
5.880 332.000 1.000
5.900 350.000 1.000
5.920 353.000 1.000
5.940 357.000 1.000
5.960 340.000 1.000
5.980 336.000 1.000
6.000 350.000 1.000
6.020 344.000 1.000
6.040 334.000 1.000
6.060 356.000 1.000
6.080 358.000 1.000
6.100 344.000 1.000
6.120 316.000 1.000
6.140 345.000 1.000
6.160 343.000 1.000
6.180 320.000 1.000
6.200 328.000 1.000
6.220 338.000 1.000
6.240 331.000 1.000
6.260 319.000 1.000
6.280 324.000 1.000
6.300 317.000 1.000
6.320 296.000 1.000
6.340 287.000 1.000
6.360 292.000 1.000
6.380 297.000 1.000
6.400 314.000 1.000
6.420 275.000 1.000
6.440 296.000 1.000
6.460 293.000 1.000
6.480 281.000 1.000
6.500 302.000 1.000
6.520 298.000 1.000
6.540 273.000 1.000
6.560 266.000 1.000
6.580 274.000 1.000
6.600 260.000 1.000
6.620 269.000 1.000
6.640 283.000 1.000
6.660 275.000 1.000
6.680 288.000 1.000
6.700 283.000 1.000
6.720 250.000 1.000
6.740 254.000 1.000
6.760 293.000 1.000
6.780 271.000 1.000
6.800 257.000 1.000
6.820 260.000 1.000
6.840 274.000 1.000
6.860 261.000 1.000
6.880 261.000 1.000
6.900 302.000 1.000
6.920 269.000 1.000
6.940 272.000 1.000
6.960 260.000 1.000
6.980 246.000 1.000
7.000 248.000 1.000
7.020 259.000 1.000
7.040 232.000 1.000
7.060 258.000 1.000
7.080 264.000 1.000
7.100 238.000 1.000
7.120 247.000 1.000
7.140 217.000 1.000
7.160 247.000 1.000
7.180 264.000 1.000
7.200 240.000 1.000
7.220 254.000 1.000
7.240 277.000 1.000
7.260 248.000 1.000
7.280 232.000 1.000
7.300 257.000 1.000
7.320 227.000 1.000
7.340 221.000 1.000
7.360 223.000 1.000
7.380 233.000 1.000
7.400 220.000 1.000
7.420 238.000 1.000
7.440 228.000 1.000
7.460 223.000 1.000
7.480 222.000 1.000
7.500 259.000 1.000
7.520 202.000 1.000
7.540 196.000 1.000
7.560 220.000 1.000
7.580 229.000 1.000
7.600 214.000 1.000
7.620 219.000 1.000
7.640 223.000 1.000
7.660 207.000 1.000
7.680 206.000 1.000
7.700 227.000 1.000
7.720 189.000 1.000
7.740 196.000 1.000
7.760 219.000 1.000
7.780 221.000 1.000
7.800 217.000 1.000
7.820 205.000 1.000
7.840 181.000 1.000
7.860 212.000 1.000
7.880 226.000 1.000
7.900 221.000 1.000
7.920 177.000 1.000
7.940 204.000 1.000
7.960 216.000 1.000
7.980 212.000 1.000
8.000 189.000 1.000
8.020 211.000 1.000
8.040 201.000 1.000
8.060 212.000 1.000
8.080 183.000 1.000
8.100 201.000 1.000
8.120 214.000 1.000
8.140 194.000 1.000
8.160 196.000 1.000
8.180 208.000 1.000
8.200 214.000 1.000
8.220 197.000 1.000
8.240 177.000 1.000
8.260 198.000 1.000
8.280 187.000 1.000
8.300 189.000 1.000
8.320 214.000 1.000
8.340 192.000 1.000
8.360 192.000 1.000
8.380 192.000 1.000
8.400 195.000 1.000
8.420 190.000 1.000
8.440 188.000 1.000
8.460 194.000 1.000
8.480 192.000 1.000
8.500 179.000 1.000
8.520 172.000 1.000
8.540 182.000 1.000
8.560 179.000 1.000
8.580 197.000 1.000
8.600 190.000 1.000
8.620 193.000 1.000
8.640 192.000 1.000
8.660 196.000 1.000
8.680 177.000 1.000
8.700 176.000 1.000
8.720 207.000 1.000
8.740 166.000 1.000
8.760 169.000 1.000
8.780 175.000 1.000
8.800 176.000 1.000
8.820 192.000 1.000
8.840 190.000 1.000
8.860 204.000 1.000
8.880 184.000 1.000
8.900 174.000 1.000
8.920 196.000 1.000
8.940 182.000 1.000
8.960 183.000 1.000
8.980 174.000 1.000
9.000 197.000 1.000
9.020 190.000 1.000
9.040 184.000 1.000
9.060 187.000 1.000
9.080 171.000 1.000
9.100 167.000 1.000
9.120 179.000 1.000
9.140 156.000 1.000
9.160 169.000 1.000
9.180 196.000 1.000
9.200 173.000 1.000
9.220 183.000 1.000
9.240 194.000 1.000
9.260 203.000 1.000
9.280 175.000 1.000
9.300 179.000 1.000
9.320 165.000 1.000
9.340 157.000 1.000
9.360 171.000 1.000
9.380 172.000 1.000
9.400 176.000 1.000
9.420 176.000 1.000
9.440 171.000 1.000
9.460 191.000 1.000
9.480 190.000 1.000
9.500 174.000 1.000
9.520 179.000 1.000
9.540 189.000 1.000
9.560 188.000 1.000
9.580 162.000 1.000
9.600 176.000 1.000
9.620 157.000 1.000
9.640 159.000 1.000
9.660 173.000 1.000
9.680 173.000 1.000
9.700 169.000 1.000
9.720 169.000 1.000
9.740 177.000 1.000
9.760 152.000 1.000
9.780 152.000 1.000
9.800 161.000 1.000
9.820 154.000 1.000
9.840 156.000 1.000
9.860 164.000 1.000
9.880 152.000 1.000
9.900 163.000 1.000
9.920 163.000 1.000
9.940 167.000 1.000
9.960 164.000 1.000
9.980 170.000 1.000
10.000 163.000 1.000
10.020 158.000 1.000
10.040 166.000 1.000
10.060 153.000 1.000
10.080 149.000 1.000
10.100 153.000 1.000
10.120 155.000 1.000
10.140 164.000 1.000
10.160 156.000 1.000
10.180 161.000 1.000
10.200 153.000 1.000
10.220 145.000 1.000
10.240 166.000 1.000
10.260 153.000 1.000
10.280 160.000 1.000
10.300 147.000 1.000
10.320 157.000 1.000
10.340 160.000 1.000
10.360 153.000 1.000
10.380 150.000 1.000
10.400 153.000 1.000
10.420 165.000 1.000
10.440 165.000 1.000
10.460 162.000 1.000
10.480 173.000 1.000
10.500 172.000 1.000
10.520 169.000 1.000
10.540 163.000 1.000
10.560 153.000 1.000
10.580 175.000 1.000
10.600 158.000 1.000
10.620 170.000 1.000
10.640 161.000 1.000
10.660 164.000 1.000
10.680 136.000 1.000
10.700 153.000 1.000
10.720 156.000 1.000
10.740 167.000 1.000
10.760 153.000 1.000
10.780 149.000 1.000
10.800 147.000 1.000
10.820 178.000 1.000
10.840 165.000 1.000
10.860 149.000 1.000
10.880 157.000 1.000
10.900 170.000 1.000
10.920 175.000 1.000
10.940 170.000 1.000
10.960 158.000 1.000
10.980 152.000 1.000
11.000 153.000 1.000
11.020 148.000 1.000
11.040 162.000 1.000
11.060 156.000 1.000
11.080 170.000 1.000
11.100 162.000 1.000
11.120 158.000 1.000
11.140 155.000 1.000
11.160 163.000 1.000
11.180 151.000 1.000
11.200 150.000 1.000
11.220 147.000 1.000
11.240 156.000 1.000
11.260 166.000 1.000
11.280 164.000 1.000
11.300 163.000 1.000
11.320 157.000 1.000
11.340 147.000 1.000
11.360 160.000 1.000
11.380 159.000 1.000
11.400 171.000 1.000
11.420 159.000 1.000
11.440 150.000 1.000
11.460 158.000 1.000
11.480 170.000 1.000
11.500 183.000 1.000
11.520 158.000 1.000
11.540 171.000 1.000
11.560 161.000 1.000
11.580 147.000 1.000
11.600 163.000 1.000
11.620 165.000 1.000
11.640 133.000 1.000
11.660 137.000 1.000
11.680 160.000 1.000
11.700 166.000 1.000
11.720 151.000 1.000
11.740 149.000 1.000
11.760 143.000 1.000
11.780 146.000 1.000
11.800 148.000 1.000
11.820 150.000 1.000
11.840 157.000 1.000
11.860 153.000 1.000
11.880 159.000 1.000
11.900 160.000 1.000
11.920 161.000 1.000
11.940 156.000 1.000
11.960 148.000 1.000
11.980 152.000 1.000
12.000 172.000 1.000
12.020 145.000 1.000
12.040 136.000 1.000
12.060 137.000 1.000
12.080 146.000 1.000
12.100 160.000 1.000
12.120 140.000 1.000
12.140 144.000 1.000
12.160 141.000 1.000
12.180 155.000 1.000
12.200 151.000 1.000
12.220 139.000 1.000
12.240 141.000 1.000
12.260 145.000 1.000
12.280 148.000 1.000
12.300 153.000 1.000
12.320 145.000 1.000
12.340 154.000 1.000
12.360 146.000 1.000
12.380 155.000 1.000
12.400 143.000 1.000
12.420 145.000 1.000
12.440 149.000 1.000
12.460 144.000 1.000
12.480 155.000 1.000
12.500 150.000 1.000
12.520 149.000 1.000
12.540 147.000 1.000
12.560 129.000 1.000
12.580 149.000 1.000
12.600 147.000 1.000
12.620 159.000 1.000
12.640 153.000 1.000
12.660 140.000 1.000
12.680 139.000 1.000
12.700 138.000 1.000
12.720 134.000 1.000
12.740 155.000 1.000
12.760 153.000 1.000
12.780 145.000 1.000
12.800 155.000 1.000
12.820 159.000 1.000
12.840 155.000 1.000
12.860 136.000 1.000
12.880 132.000 1.000
12.900 140.000 1.000
12.920 137.000 1.000
12.940 147.000 1.000
12.960 148.000 1.000
12.980 147.000 1.000
13.000 148.000 1.000
13.020 161.000 1.000
13.040 154.000 1.000
13.060 127.000 1.000
13.080 131.000 1.000
13.100 149.000 1.000
13.120 163.000 1.000
13.140 145.000 1.000
13.160 140.000 1.000
13.180 152.000 1.000
13.200 145.000 1.000
13.220 145.000 1.000
13.240 157.000 1.000
13.260 154.000 1.000
13.280 141.000 1.000
13.300 143.000 1.000
13.320 150.000 1.000
13.340 147.000 1.000
13.360 147.000 1.000
13.380 145.000 1.000
13.400 149.000 1.000
13.420 140.000 1.000
13.440 142.000 1.000
13.460 133.000 1.000
13.480 131.000 1.000
13.500 138.000 1.000
13.520 148.000 1.000
13.540 154.000 1.000
13.560 158.000 1.000
13.580 152.000 1.000
13.600 158.000 1.000
13.620 142.000 1.000
13.640 141.000 1.000
13.660 156.000 1.000
13.680 179.000 1.000
13.700 164.000 1.000
13.720 157.000 1.000
13.740 154.000 1.000
13.760 154.000 1.000
13.780 164.000 1.000
13.800 163.000 1.000
13.820 158.000 1.000
13.840 141.000 1.000
13.860 149.000 1.000
13.880 151.000 1.000
13.900 157.000 1.000
13.920 161.000 1.000
13.940 171.000 1.000
13.960 166.000 1.000
13.980 149.000 1.000
14.000 169.000 1.000
14.020 168.000 1.000
14.040 157.000 1.000
14.060 173.000 1.000
14.080 160.000 1.000
14.100 151.000 1.000
14.120 147.000 1.000
14.140 167.000 1.000
14.160 174.000 1.000
14.180 172.000 1.000
14.200 172.000 1.000
14.220 176.000 1.000
14.240 165.000 1.000
14.260 156.000 1.000
14.280 165.000 1.000
14.300 170.000 1.000
14.320 170.000 1.000
14.340 160.000 1.000
14.360 176.000 1.000
14.380 163.000 1.000
14.400 158.000 1.000
14.420 173.000 1.000
14.440 160.000 1.000
14.460 169.000 1.000
14.480 153.000 1.000
14.500 158.000 1.000
14.520 162.000 1.000
14.540 173.000 1.000
14.560 168.000 1.000
14.580 140.000 1.000
14.600 144.000 1.000
14.620 159.000 1.000
14.640 157.000 1.000
14.660 167.000 1.000
14.680 163.000 1.000
14.700 164.000 1.000
14.720 154.000 1.000
14.740 161.000 1.000
14.760 157.000 1.000
14.780 143.000 1.000
14.800 137.000 1.000
14.820 163.000 1.000
14.840 152.000 1.000
14.860 144.000 1.000
14.880 145.000 1.000
14.900 156.000 1.000
14.920 161.000 1.000
14.940 165.000 1.000
14.960 145.000 1.000
14.980 151.000 1.000
15.000 155.000 1.000
15.020 156.000 1.000
15.040 158.000 1.000
15.060 154.000 1.000
15.080 148.000 1.000
15.100 142.000 1.000
15.120 154.000 1.000
15.140 153.000 1.000
15.160 147.000 1.000
15.180 150.000 1.000
15.200 148.000 1.000
15.220 139.000 1.000
15.240 145.000 1.000
15.260 162.000 1.000
15.280 161.000 1.000
15.300 147.000 1.000
15.320 141.000 1.000
15.340 141.000 1.000
15.360 142.000 1.000
15.380 152.000 1.000
15.400 153.000 1.000
15.420 149.000 1.000
15.440 155.000 1.000
15.460 155.000 1.000
15.480 155.000 1.000
15.500 158.000 1.000
15.520 145.000 1.000
15.540 144.000 1.000
15.560 137.000 1.000
15.580 142.000 1.000
15.600 150.000 1.000
15.620 146.000 1.000
15.640 134.000 1.000
15.660 133.000 1.000
15.680 134.000 1.000
15.700 145.000 1.000
15.720 155.000 1.000
15.740 141.000 1.000
15.760 126.000 1.000
15.780 122.000 1.000
15.800 138.000 1.000
15.820 130.000 1.000
15.840 147.000 1.000
15.860 144.000 1.000
15.880 131.000 1.000
15.900 129.000 1.000
15.920 141.000 1.000
15.940 145.000 1.000
15.960 128.000 1.000
15.980 117.000 1.000
16.000 129.000 1.000
16.020 122.000 1.000
16.040 121.000 1.000
