*RAS_DATA_START
*RAS_HEADER_START
*CORR_POS_DB_NAME "correction_file_020419"
*CORR_POS_GONIO_RADIUS ""
*CORR_POS_NODE_INDEX01 ""
*CORR_POS_NODE_INDEX02 ""
*CORR_POS_NODE_INDEX03 ""
*CORR_POS_NODE_INDEX04 ""
*CORR_POS_NODE_INDEX05 ""
*CORR_POS_NODE_INDEX06 ""
*CORR_POS_NODE_INDEX07 ""
*CORR_POS_NODE_INDEX08 ""
*CORR_POS_NODE_INDEX09 ""
*CORR_POS_NODE_INDEX10 ""
*CORR_POS_NODE_INDEX11 ""
*CORR_POS_NODE_LABEL01 "Si(111)"
*CORR_POS_NODE_LABEL02 "Si(220)"
*CORR_POS_NODE_LABEL03 "Si(311)"
*CORR_POS_NODE_LABEL04 "Si(400)"
*CORR_POS_NODE_LABEL05 "Si(331)"
*CORR_POS_NODE_LABEL06 "Si(422)"
*CORR_POS_NODE_LABEL07 "Si(511)"
*CORR_POS_NODE_LABEL08 "Si(440)"
*CORR_POS_NODE_LABEL09 "Si(531)"
*CORR_POS_NODE_LABEL10 "Si(620)"
*CORR_POS_NODE_LABEL11 "Si(533)"
*CORR_POS_NODE_POS_CALC01 "28.4137"
*CORR_POS_NODE_POS_CALC02 "47.2707"
*CORR_POS_NODE_POS_CALC03 "56.0883"
*CORR_POS_NODE_POS_CALC04 "69.0934"
*CORR_POS_NODE_POS_CALC05 "76.3385"
*CORR_POS_NODE_POS_CALC06 "87.9915"
*CORR_POS_NODE_POS_CALC07 "94.9137"
*CORR_POS_NODE_POS_CALC08 "106.67"
*CORR_POS_NODE_POS_CALC09 "114.054"
*CORR_POS_NODE_POS_CALC10 "127.508"
*CORR_POS_NODE_POS_CALC11 "136.858"
*CORR_POS_NODE_POS_MEAS01 "28.463"
*CORR_POS_NODE_POS_MEAS02 "47.3124"
*CORR_POS_NODE_POS_MEAS03 "56.1276"
*CORR_POS_NODE_POS_MEAS04 "69.1418"
*CORR_POS_NODE_POS_MEAS05 "76.3865"
*CORR_POS_NODE_POS_MEAS06 "88.0411"
*CORR_POS_NODE_POS_MEAS07 "94.9598"
*CORR_POS_NODE_POS_MEAS08 "106.713"
*CORR_POS_NODE_POS_MEAS09 "114.102"
*CORR_POS_NODE_POS_MEAS10 "127.558"
*CORR_POS_NODE_POS_MEAS11 "136.911"
*CORR_POS_OPT_ATTR "集中法"
*CORR_POS_PARAM_MU ""
*CORR_POS_PARAM_PL ""
*CORR_POS_SEMODEL_TYPE "0"
*CORR_POS_STANDARD_TYPE ""
*CORR_POS_VALUE_ANALYZER "None"
*CORR_POS_VALUE_CMONO "None"
*CORR_POS_VALUE_IMONO "None"
*CORR_POS_VALUE_IS "0.625deg"
*CORR_POS_VALUE_ISL "10.0mm"
*CORR_POS_VALUE_ISOLLER "2.5deg"
*CORR_POS_VALUE_RS1 "13.0mm"
*CORR_POS_VALUE_RS2 "13.0mm"
*CORR_POS_VALUE_RSOLLER "2.5deg"
*CORR_POS_XG_FOCUS_L ""
*CORR_POS_XG_WAVE_TYPE ""
*CORR_POS_XG_WAVE_VALUE ""
*DISP_FMT_X "%.2f"
*DISP_FMT_Y "%.0f"
*DISP_FULLSCALE "26480.0000000000"
*DISP_LINE_COLOR "255.0000000000"
*DISP_LINE_STYLE "0.0000000000"
*DISP_LINE_WIDTH "0.2500000000"
*DISP_NOTE "Collected Data-2"
*DISP_OFFSET_Y "0.0000000000"
*DISP_PEAKSEARCH_UNIT_Y "cps"
*DISP_RANGE_BOTTOM "0.0000000000"
*DISP_RANGE_LEFT "5.0000000000"
*DISP_RANGE_LOGCUTOFF "0.0100000000"
*DISP_RANGE_RIGHT "90.0000000000"
*DISP_RANGE_TOP "26480.0000000000"
*DISP_SCALE_MODE_Y "0.0000000000"
*DISP_TAB_NAME "Theta/2-Theta"
*DISP_TITLE_Y "Intensity"
*DISP_UNIT_Y "cps"
*DISP_WINDOW_NAME "MSG_MACROENGINE"
*FILE_COMMENT " "
*FILE_MD5 ""
*FILE_MEMO " "
*FILE_OPERATOR "SDU_RIGAKU"
*FILE_SAMPLE "TiO2-1-6h-BET"
*FILE_TYPE "RAS_RAW"
*FILE_USERGROUP "System User"
*FILE_VERSION "1.0000000000"
*HW_ATTACHMENT_ID "ATT1031"
*HW_ATTACHMENT_NAME "6サンプルチェンジャ|ASC-6"
*HW_COUNTER_ID-0 "CUT0025"
*HW_COUNTER_ID-1 "CUT0020"
*HW_COUNTER_ID-2 "CUT0020"
*HW_COUNTER_ID-3 "CMC0021"
*HW_COUNTER_NAME-0 "D/teX Ultra|D/teX Ultra"
*HW_COUNTER_NAME-1 "None|None"
*HW_COUNTER_NAME-2 "None|None"
*HW_COUNTER_NAME-3 "検出器モノクロメータ|Detector monochromator"
*HW_COUNTER_SELECT_NAME "D/teX Ultra|D/teX Ultra"
*HW_GONIOMETER_ID "GON0070"
*HW_GONIOMETER_NAME "MiniFlex 300/600|MiniFlex 300/600"
*HW_GONIOMETER_RADIUS-0 "79.0"
*HW_GONIOMETER_RADIUS-1 "91.5"
*HW_GONIOMETER_RADIUS-2 "150.0"
*HW_GONIOMETER_RADIUS-3 "0"
*HW_GONIOMETER_RADIUS-4 "103.4"
*HW_GONIOMETER_RADIUS-5 "150.0"
*HW_GONIOMETER_RADIUS-6 "46.6"
*HW_GONIOMETER_RADIUS-7 "160.0"
*HW_I_OPT_ID-0 "ISL0021"
*HW_I_OPT_ID-1 "ISO0021"
*HW_I_OPT_NAME-0 "発散スリット|Divergence slit"
*HW_I_OPT_NAME-1 "入射平行スリット|Incident parallel slit"
*HW_R_ATTENUATER_AUTOMODE "0"
*HW_R_OPT_ID-0 "RSS0021"
*HW_R_OPT_ID-1 "RSO0021"
*HW_R_OPT_ID-2 "RRS0021"
*HW_R_OPT_NAME-0 "散乱スリット|Scattering slit"
*HW_R_OPT_NAME-1 "受光平行スリット|Receiving soller slit"
*HW_R_OPT_NAME-2 "受光スリット|Receiving slit"
*HW_SAMPLE_HOLDER_ID "SMP0000"
*HW_SAMPLE_HOLDER_NAME "無し|None"
*HW_XG_CURRENT_MAX "15"
*HW_XG_CURRENT_MIN "2"
*HW_XG_CURRENT_RESOLUTION "1"
*HW_XG_CURRENT_UNIT "mA"
*HW_XG_FOCUS "1mm x 10mm"
*HW_XG_FOCUS_TYPE "Normal"
*HW_XG_ID ""
*HW_XG_NAME "300W/600W 封入管-B|300W/600W Sealed tube-B"
*HW_XG_TARGET_ATOMIC_NUMBER "29.0000000000"
*HW_XG_TARGET_NAME "Cu"
*HW_XG_TYPE "Hermetic"
*HW_XG_VOLTAGE_MAX "40"
*HW_XG_VOLTAGE_MIN "20"
*HW_XG_VOLTAGE_RESOLUTION "1"
*HW_XG_VOLTAGE_UNIT "kV"
*HW_XG_WATT_MAX "1"
*HW_XG_WATT_UNIT "kW"
*HW_XG_WAVE_LENGTH_ALPHA1 "1.540593"
*HW_XG_WAVE_LENGTH_ALPHA2 "1.544414"
*HW_XG_WAVE_LENGTH_BETA "1.392250"
*MEAS_COND_AXIS_NAME-0 "Theta/2-Theta"
*MEAS_COND_AXIS_NAME-1 "Spin"
*MEAS_COND_AXIS_NAME-2 "Change"
*MEAS_COND_AXIS_NAME-3 "Soller(inc.)"
*MEAS_COND_AXIS_NAME-4 "IHS"
*MEAS_COND_AXIS_NAME-5 "DS"
*MEAS_COND_AXIS_NAME-6 "SS"
*MEAS_COND_AXIS_NAME-7 "Soller(rec.)"
*MEAS_COND_AXIS_NAME-8 "RS"
*MEAS_COND_AXIS_NAME-9 "Filter"
*MEAS_COND_AXIS_NAME-10 "Monochromator"
*MEAS_COND_AXIS_NAME-11 "PHA"
*MEAS_COND_AXIS_NAME_INTERNAL-0 "TwoThetaTheta"
*MEAS_COND_AXIS_NAME_INTERNAL-1 "Spin"
*MEAS_COND_AXIS_NAME_INTERNAL-2 "Change"
*MEAS_COND_AXIS_NAME_INTERNAL-3 "IncidentSollerSlit"
*MEAS_COND_AXIS_NAME_INTERNAL-4 "IncidentAxdSlit"
*MEAS_COND_AXIS_NAME_INTERNAL-5 "IncidentSlitBox"
*MEAS_COND_AXIS_NAME_INTERNAL-6 "ReceivingSlitBox1"
*MEAS_COND_AXIS_NAME_INTERNAL-7 "ReceivingSollerSlit"
*MEAS_COND_AXIS_NAME_INTERNAL-8 "ReceivingSlitBox2"
*MEAS_COND_AXIS_NAME_INTERNAL-9 "Filter"
*MEAS_COND_AXIS_NAME_INTERNAL-10 "CounterMonochromator"
*MEAS_COND_AXIS_NAME_INTERNAL-11 "PHA"
*MEAS_COND_AXIS_NAME_MAGICNO-0 "268632064.0000000000"
*MEAS_COND_AXIS_NAME_MAGICNO-1 "16842752.0000000000"
*MEAS_COND_AXIS_NAME_MAGICNO-2 "16842752.0000000000"
*MEAS_COND_AXIS_NAME_MAGICNO-3 "20971521.0000000000"
*MEAS_COND_AXIS_NAME_MAGICNO-4 "22020097.0000000000"
*MEAS_COND_AXIS_NAME_MAGICNO-5 "22020097.0000000000"
*MEAS_COND_AXIS_NAME_MAGICNO-6 "23068673.0000000000"
*MEAS_COND_AXIS_NAME_MAGICNO-7 "20971521.0000000000"
*MEAS_COND_AXIS_NAME_MAGICNO-8 "23068673.0000000000"
*MEAS_COND_AXIS_NAME_MAGICNO-9 "20971521.0000000000"
*MEAS_COND_AXIS_NAME_MAGICNO-10 "20971521.0000000000"
*MEAS_COND_AXIS_NAME_MAGICNO-11 "0.0000000000"
*MEAS_COND_AXIS_OFFSET-0 "0.0000000000"
*MEAS_COND_AXIS_OFFSET-1 "-"
*MEAS_COND_AXIS_OFFSET-2 "-"
*MEAS_COND_AXIS_OFFSET-3 "-"
*MEAS_COND_AXIS_OFFSET-4 "-"
*MEAS_COND_AXIS_OFFSET-5 "-"
*MEAS_COND_AXIS_OFFSET-6 "-"
*MEAS_COND_AXIS_OFFSET-7 "-"
*MEAS_COND_AXIS_OFFSET-8 "-"
*MEAS_COND_AXIS_OFFSET-9 "-"
*MEAS_COND_AXIS_OFFSET-10 "-"
*MEAS_COND_AXIS_OFFSET-11 "-"
*MEAS_COND_AXIS_POSITION-0 "92.5100000000"
*MEAS_COND_AXIS_POSITION-1 "0.0000000000"
*MEAS_COND_AXIS_POSITION-2 "4.0000000000"
*MEAS_COND_AXIS_POSITION-3 "2.5deg"
*MEAS_COND_AXIS_POSITION-4 "10.0mm"
*MEAS_COND_AXIS_POSITION-5 "0.625deg"
*MEAS_COND_AXIS_POSITION-6 "13.0mm"
*MEAS_COND_AXIS_POSITION-7 "2.5deg"
*MEAS_COND_AXIS_POSITION-8 "13.0mm"
*MEAS_COND_AXIS_POSITION-9 "K-beta(x1)"
*MEAS_COND_AXIS_POSITION-10 "None"
*MEAS_COND_AXIS_POSITION-11 "42.0000000000"
*MEAS_COND_AXIS_UNIT-0 "deg"
*MEAS_COND_AXIS_UNIT-1 ""
*MEAS_COND_AXIS_UNIT-2 ""
*MEAS_COND_AXIS_UNIT-3 ""
*MEAS_COND_AXIS_UNIT-4 ""
*MEAS_COND_AXIS_UNIT-5 ""
*MEAS_COND_AXIS_UNIT-6 ""
*MEAS_COND_AXIS_UNIT-7 ""
*MEAS_COND_AXIS_UNIT-8 ""
*MEAS_COND_AXIS_UNIT-9 ""
*MEAS_COND_AXIS_UNIT-10 ""
*MEAS_COND_AXIS_UNIT-11 "div"
*MEAS_COND_CORRECTION_SLIT_COUNTERMONO "None"
*MEAS_COND_CORRECTION_SLIT_DS "0.625deg"
*MEAS_COND_CORRECTION_SLIT_FILTER "None"
*MEAS_COND_CORRECTION_SLIT_IHS "10.0mm"
*MEAS_COND_CORRECTION_SLIT_RS "13.0mm"
*MEAS_COND_CORRECTION_SLIT_SOLLER_INC "2.5deg"
*MEAS_COND_CORRECTION_SLIT_SOLLER_REC "2.5deg"
*MEAS_COND_CORRECTION_SLIT_SS "13.0mm"
*MEAS_COND_COUNTER_CNTLOSS_CORR "0.0000000000"
*MEAS_COND_COUNTER_PHABASE "42.0000000000"
*MEAS_COND_COUNTER_PHAWINDOW "15.0000000000"
*MEAS_COND_COUNTER_PHA_UNIT "div"
*MEAS_COND_COUNTER_TAUDIFF "0.2500000000"
*MEAS_COND_COUNTER_TAUINT "0.7500000000"
*MEAS_COND_IRRADIATION_MODE "OFF"
*MEAS_COND_IRRADIATION_WIDTH ""
*MEAS_COND_OPT_ATTR " "
*MEAS_COND_OPT_NAME ""
*MEAS_COND_UNSYMMETRIC_MODE "OFF"
*MEAS_COND_XG_CURRENT "15.0000000000"
*MEAS_COND_XG_VOLTAGE "40.0000000000"
*MEAS_COND_XG_WAVE_TYPE "Ka"
*MEAS_DATA_COUNT "4251.0000000000"
*MEAS_SCAN_AXIS_X "Theta/2-Theta"
*MEAS_SCAN_AXIS_X_INTERNAL "TwoThetaTheta"
*MEAS_SCAN_END_TIME "04/16/19 12:02:15"
*MEAS_SCAN_MODE "CONTINUOUS"
*MEAS_SCAN_MONITOR "0"
*MEAS_SCAN_RESOLUTION_X "0.005"
*MEAS_SCAN_SPEED "10.000"
*MEAS_SCAN_SPEED_UNIT "deg/min"
*MEAS_SCAN_START "5.0000000000"
*MEAS_SCAN_START_TIME "04/16/19 11:52:49"
*MEAS_SCAN_STEP "0.0200000000"
*MEAS_SCAN_STOP "90.0000000000"
*MEAS_SCAN_UNIT_X "deg"
*MEAS_SCAN_UNIT_Y "counts"
*SLIT_SYSTEM "0"
*RAS_HEADER_END
*RAS_INT_START
5.000 321.000 1.000
5.020 338.000 1.000
5.040 311.000 1.000
5.060 328.000 1.000
5.080 358.000 1.000
5.100 337.000 1.000
5.120 315.000 1.000
5.140 327.000 1.000
5.160 317.000 1.000
5.180 310.000 1.000
5.200 356.000 1.000
5.220 358.000 1.000
5.240 317.000 1.000
5.260 289.000 1.000
5.280 279.000 1.000
5.300 271.000 1.000
5.320 284.000 1.000
5.340 295.000 1.000
5.360 305.000 1.000
5.380 305.000 1.000
5.400 278.000 1.000
5.420 307.000 1.000
5.440 330.000 1.000
5.460 272.000 1.000
5.480 291.000 1.000
5.500 289.000 1.000
5.520 262.000 1.000
5.540 268.000 1.000
5.560 240.000 1.000
5.580 264.000 1.000
5.600 275.000 1.000
5.620 261.000 1.000
5.640 265.000 1.000
5.660 238.000 1.000
5.680 242.000 1.000
5.700 254.000 1.000
5.720 269.000 1.000
5.740 234.000 1.000
5.760 245.000 1.000
5.780 216.000 1.000
5.800 291.000 1.000
5.820 241.000 1.000
5.840 259.000 1.000
5.860 233.000 1.000
5.880 202.000 1.000
5.900 239.000 1.000
5.920 251.000 1.000
5.940 255.000 1.000
5.960 230.000 1.000
5.980 191.000 1.000
6.000 266.000 1.000
6.020 248.000 1.000
6.040 220.000 1.000
6.060 214.000 1.000
6.080 207.000 1.000
6.100 234.000 1.000
6.120 224.000 1.000
6.140 213.000 1.000
6.160 232.000 1.000
6.180 222.000 1.000
6.200 209.000 1.000
6.220 233.000 1.000
6.240 223.000 1.000
6.260 207.000 1.000
6.280 217.000 1.000
6.300 216.000 1.000
6.320 229.000 1.000
6.340 222.000 1.000
6.360 189.000 1.000
6.380 202.000 1.000
6.400 201.000 1.000
6.420 199.000 1.000
6.440 216.000 1.000
6.460 189.000 1.000
6.480 192.000 1.000
6.500 203.000 1.000
6.520 209.000 1.000
6.540 203.000 1.000
6.560 211.000 1.000
6.580 200.000 1.000
6.600 167.000 1.000
6.620 209.000 1.000
6.640 210.000 1.000
6.660 209.000 1.000
6.680 203.000 1.000
6.700 208.000 1.000
6.720 200.000 1.000
6.740 201.000 1.000
6.760 227.000 1.000
6.780 204.000 1.000
6.800 202.000 1.000
6.820 177.000 1.000
6.840 187.000 1.000
6.860 180.000 1.000
6.880 191.000 1.000
6.900 191.000 1.000
6.920 197.000 1.000
6.940 186.000 1.000
6.960 192.000 1.000
6.980 166.000 1.000
7.000 189.000 1.000
7.020 209.000 1.000
7.040 203.000 1.000
7.060 169.000 1.000
7.080 187.000 1.000
7.100 183.000 1.000
7.120 186.000 1.000
7.140 181.000 1.000
7.160 170.000 1.000
7.180 174.000 1.000
7.200 166.000 1.000
7.220 172.000 1.000
7.240 181.000 1.000
7.260 169.000 1.000
7.280 180.000 1.000
7.300 174.000 1.000
7.320 179.000 1.000
7.340 169.000 1.000
7.360 185.000 1.000
7.380 170.000 1.000
7.400 174.000 1.000
7.420 157.000 1.000
7.440 172.000 1.000
7.460 160.000 1.000
7.480 171.000 1.000
7.500 169.000 1.000
7.520 169.000 1.000
7.540 160.000 1.000
7.560 159.000 1.000
7.580 177.000 1.000
7.600 177.000 1.000
7.620 161.000 1.000
7.640 165.000 1.000
7.660 144.000 1.000
7.680 144.000 1.000
7.700 170.000 1.000
7.720 162.000 1.000
7.740 156.000 1.000
7.760 166.000 1.000
7.780 168.000 1.000
7.800 144.000 1.000
7.820 131.000 1.000
7.840 153.000 1.000
7.860 169.000 1.000
7.880 172.000 1.000
7.900 164.000 1.000
7.920 156.000 1.000
7.940 158.000 1.000
7.960 153.000 1.000
7.980 163.000 1.000
8.000 165.000 1.000
8.020 164.000 1.000
8.040 145.000 1.000
8.060 139.000 1.000
8.080 154.000 1.000
8.100 151.000 1.000
8.120 139.000 1.000
8.140 150.000 1.000
8.160 141.000 1.000
8.180 132.000 1.000
8.200 133.000 1.000
8.220 145.000 1.000
8.240 135.000 1.000
8.260 145.000 1.000
8.280 144.000 1.000
8.300 150.000 1.000
8.320 153.000 1.000
8.340 138.000 1.000
8.360 132.000 1.000
8.380 140.000 1.000
8.400 147.000 1.000
8.420 134.000 1.000
8.440 153.000 1.000
8.460 150.000 1.000
8.480 147.000 1.000
8.500 141.000 1.000
8.520 154.000 1.000
8.540 149.000 1.000
8.560 151.000 1.000
8.580 154.000 1.000
8.600 142.000 1.000
8.620 129.000 1.000
8.640 131.000 1.000
8.660 125.000 1.000
8.680 141.000 1.000
8.700 155.000 1.000
8.720 144.000 1.000
8.740 144.000 1.000
8.760 139.000 1.000
8.780 143.000 1.000
8.800 127.000 1.000
8.820 134.000 1.000
8.840 124.000 1.000
8.860 146.000 1.000
8.880 146.000 1.000
8.900 133.000 1.000
8.920 137.000 1.000
8.940 127.000 1.000
8.960 140.000 1.000
8.980 134.000 1.000
9.000 146.000 1.000
9.020 141.000 1.000
9.040 147.000 1.000
9.060 141.000 1.000
9.080 142.000 1.000
9.100 127.000 1.000
9.120 147.000 1.000
9.140 147.000 1.000
9.160 125.000 1.000
9.180 135.000 1.000
9.200 149.000 1.000
9.220 139.000 1.000
9.240 132.000 1.000
9.260 151.000 1.000
9.280 140.000 1.000
9.300 126.000 1.000
9.320 130.000 1.000
9.340 137.000 1.000
9.360 132.000 1.000
9.380 136.000 1.000
9.400 131.000 1.000
9.420 116.000 1.000
9.440 132.000 1.000
9.460 126.000 1.000
9.480 138.000 1.000
9.500 145.000 1.000
9.520 138.000 1.000
9.540 136.000 1.000
9.560 144.000 1.000
9.580 137.000 1.000
9.600 129.000 1.000
9.620 141.000 1.000
9.640 136.000 1.000
9.660 119.000 1.000
9.680 140.000 1.000
9.700 131.000 1.000
9.720 120.000 1.000
9.740 140.000 1.000
9.760 153.000 1.000
9.780 125.000 1.000
9.800 122.000 1.000
9.820 141.000 1.000
9.840 127.000 1.000
9.860 136.000 1.000
9.880 115.000 1.000
9.900 138.000 1.000
9.920 136.000 1.000
9.940 126.000 1.000
9.960 137.000 1.000
9.980 148.000 1.000
10.000 115.000 1.000
10.020 112.000 1.000
10.040 141.000 1.000
10.060 136.000 1.000
10.080 127.000 1.000
10.100 121.000 1.000
10.120 118.000 1.000
10.140 133.000 1.000
10.160 135.000 1.000
10.180 115.000 1.000
10.200 123.000 1.000
10.220 117.000 1.000
10.240 119.000 1.000
10.260 124.000 1.000
10.280 127.000 1.000
10.300 141.000 1.000
10.320 138.000 1.000
10.340 128.000 1.000
10.360 126.000 1.000
10.380 133.000 1.000
10.400 128.000 1.000
10.420 118.000 1.000
10.440 138.000 1.000
10.460 129.000 1.000
10.480 126.000 1.000
10.500 128.000 1.000
10.520 127.000 1.000
10.540 120.000 1.000
10.560 118.000 1.000
10.580 129.000 1.000
10.600 135.000 1.000
10.620 135.000 1.000
10.640 133.000 1.000
10.660 131.000 1.000
10.680 122.000 1.000
10.700 126.000 1.000
10.720 130.000 1.000
10.740 139.000 1.000
10.760 128.000 1.000
10.780 132.000 1.000
10.800 124.000 1.000
10.820 127.000 1.000
10.840 122.000 1.000
10.860 125.000 1.000
10.880 122.000 1.000
10.900 119.000 1.000
10.920 118.000 1.000
10.940 124.000 1.000
10.960 123.000 1.000
10.980 126.000 1.000
11.000 120.000 1.000
11.020 126.000 1.000
11.040 118.000 1.000
11.060 119.000 1.000
11.080 122.000 1.000
11.100 130.000 1.000
11.120 120.000 1.000
11.140 119.000 1.000
11.160 113.000 1.000
11.180 111.000 1.000
11.200 124.000 1.000
11.220 126.000 1.000
11.240 132.000 1.000
11.260 115.000 1.000
11.280 123.000 1.000
11.300 128.000 1.000
11.320 119.000 1.000
11.340 126.000 1.000
11.360 128.000 1.000
11.380 133.000 1.000
11.400 122.000 1.000
11.420 122.000 1.000
11.440 114.000 1.000
11.460 125.000 1.000
11.480 126.000 1.000
11.500 129.000 1.000
11.520 128.000 1.000
11.540 116.000 1.000
11.560 118.000 1.000
11.580 115.000 1.000
11.600 119.000 1.000
11.620 122.000 1.000
11.640 133.000 1.000
11.660 137.000 1.000
11.680 132.000 1.000
11.700 128.000 1.000
11.720 120.000 1.000
11.740 121.000 1.000
11.760 118.000 1.000
11.780 123.000 1.000
11.800 128.000 1.000
11.820 127.000 1.000
11.840 134.000 1.000
11.860 131.000 1.000
11.880 120.000 1.000
11.900 130.000 1.000
11.920 129.000 1.000
11.940 131.000 1.000
11.960 117.000 1.000
11.980 114.000 1.000
12.000 122.000 1.000
12.020 134.000 1.000
12.040 128.000 1.000
12.060 101.000 1.000
12.080 107.000 1.000
12.100 119.000 1.000
12.120 122.000 1.000
12.140 124.000 1.000
12.160 136.000 1.000
12.180 128.000 1.000
12.200 127.000 1.000
12.220 125.000 1.000
12.240 108.000 1.000
12.260 127.000 1.000
12.280 129.000 1.000
12.300 129.000 1.000
12.320 120.000 1.000
12.340 129.000 1.000
12.360 116.000 1.000
12.380 117.000 1.000
12.400 116.000 1.000
12.420 129.000 1.000
12.440 128.000 1.000
12.460 109.000 1.000
12.480 112.000 1.000
12.500 121.000 1.000
12.520 119.000 1.000
12.540 113.000 1.000
12.560 112.000 1.000
12.580 120.000 1.000
12.600 125.000 1.000
12.620 108.000 1.000
12.640 121.000 1.000
12.660 126.000 1.000
12.680 125.000 1.000
12.700 118.000 1.000
12.720 115.000 1.000
12.740 116.000 1.000
12.760 122.000 1.000
12.780 116.000 1.000
12.800 116.000 1.000
12.820 121.000 1.000
12.840 131.000 1.000
12.860 118.000 1.000
12.880 105.000 1.000
12.900 111.000 1.000
12.920 116.000 1.000
12.940 120.000 1.000
12.960 116.000 1.000
12.980 120.000 1.000
13.000 119.000 1.000
13.020 111.000 1.000
13.040 117.000 1.000
13.060 110.000 1.000
13.080 117.000 1.000
13.100 123.000 1.000
13.120 119.000 1.000
13.140 121.000 1.000
13.160 130.000 1.000
13.180 131.000 1.000
13.200 126.000 1.000
13.220 122.000 1.000
13.240 109.000 1.000
13.260 106.000 1.000
13.280 114.000 1.000
13.300 119.000 1.000
13.320 105.000 1.000
13.340 117.000 1.000
13.360 118.000 1.000
13.380 130.000 1.000
13.400 120.000 1.000
13.420 125.000 1.000
13.440 123.000 1.000
13.460 112.000 1.000
13.480 111.000 1.000
13.500 100.000 1.000
13.520 117.000 1.000
13.540 115.000 1.000
13.560 119.000 1.000
13.580 118.000 1.000
13.600 116.000 1.000
13.620 119.000 1.000
13.640 121.000 1.000
13.660 122.000 1.000
13.680 120.000 1.000
13.700 108.000 1.000
13.720 117.000 1.000
13.740 121.000 1.000
13.760 119.000 1.000
13.780 123.000 1.000
13.800 124.000 1.000
13.820 107.000 1.000
13.840 115.000 1.000
13.860 112.000 1.000
13.880 110.000 1.000
13.900 100.000 1.000
13.920 117.000 1.000
13.940 121.000 1.000
13.960 121.000 1.000
13.980 112.000 1.000
14.000 108.000 1.000
14.020 113.000 1.000
14.040 125.000 1.000
14.060 128.000 1.000
14.080 127.000 1.000
14.100 123.000 1.000
14.120 123.000 1.000
14.140 122.000 1.000
14.160 129.000 1.000
14.180 121.000 1.000
14.200 104.000 1.000
14.220 131.000 1.000
14.240 128.000 1.000
14.260 118.000 1.000
14.280 114.000 1.000
14.300 122.000 1.000
14.320 112.000 1.000
14.340 116.000 1.000
14.360 125.000 1.000
14.380 121.000 1.000
14.400 123.000 1.000
14.420 119.000 1.000
14.440 117.000 1.000
14.460 121.000 1.000
14.480 113.000 1.000
14.500 101.000 1.000
14.520 117.000 1.000
14.540 116.000 1.000
14.560 132.000 1.000
14.580 115.000 1.000
14.600 101.000 1.000
14.620 102.000 1.000
14.640 107.000 1.000
14.660 102.000 1.000
14.680 111.000 1.000
14.700 122.000 1.000
14.720 124.000 1.000
14.740 113.000 1.000
14.760 104.000 1.000
14.780 113.000 1.000
14.800 105.000 1.000
14.820 107.000 1.000
14.840 111.000 1.000
14.860 104.000 1.000
14.880 98.000 1.000
14.900 100.000 1.000
14.920 88.000 1.000
14.940 102.000 1.000
14.960 105.000 1.000
14.980 105.000 1.000
15.000 112.000 1.000
15.020 120.000 1.000
15.040 114.000 1.000
15.060 122.000 1.000
15.080 114.000 1.000
15.100 105.000 1.000
15.120 98.000 1.000
15.140 105.000 1.000
15.160 101.000 1.000
15.180 93.000 1.000
15.200 102.000 1.000
15.220 105.000 1.000
15.240 108.000 1.000
15.260 110.000 1.000
15.280 109.000 1.000
15.300 112.000 1.000
15.320 99.000 1.000
15.340 102.000 1.000
15.360 101.000 1.000
15.380 112.000 1.000
15.400 117.000 1.000
15.420 104.000 1.000
15.440 96.000 1.000
15.460 108.000 1.000
15.480 117.000 1.000
15.500 122.000 1.000
15.520 114.000 1.000
15.540 112.000 1.000
15.560 109.000 1.000
15.580 112.000 1.000
15.600 113.000 1.000
15.620 117.000 1.000
15.640 112.000 1.000
15.660 121.000 1.000
15.680 113.000 1.000
15.700 101.000 1.000
15.720 111.000 1.000
15.740 104.000 1.000
15.760 104.000 1.000
15.780 108.000 1.000
15.800 101.000 1.000
15.820 102.000 1.000
15.840 101.000 1.000
15.860 115.000 1.000
15.880 116.000 1.000
15.900 113.000 1.000
15.920 101.000 1.000
15.940 103.000 1.000
15.960 99.000 1.000
15.980 104.000 1.000
16.000 112.000 1.000
16.020 121.000 1.000
16.040 127.000 1.000
